;Subject;Test;FCz;FCz Oz;FCz O1;FCz PO8;FCz O2;FCz PO7;FCz PO3;FCz PO4;Oz Oz;Oz O1;Oz PO8;Oz O2;Oz PO7;Oz PO3;Oz PO4;O1 O1;O1 PO8;O1 O2;O1 PO7;O1 PO3;O1 PO4;PO8 PO8;O2 PO8;PO7 PO8;PO3 PO8;PO4 PO8;O2 O2;O2 PO7;O2 PO3;O2 PO4;PO7 PO7;PO7 PO3;PO7 PO4;PO3 PO3;PO3 PO4;PO4 PO4;SCORE_1;SCORE_2;SCORE_3;SCORE_4
0;S3;Resting Open;1;0.154163541;0.134533633;0.137284321;0.139284821;0.138034509;0.118779695;0.133033258;1;0.49299825;0.405726432;0.528382096;0.304576144;0.372468117;0.461740435;1;0.428857214;0.369217304;0.231557889;0.360965241;0.345211303;1;0.279194799;0.189672418;0.307451863;0.257939485;1;0.356964241;0.298574644;0.505376344;1;0.201675419;0.326206552;1;0.34796199;1;3.67214;1.70062;0.490216;-0.279115
0;S5;Resting Open;1;0.094898725;0.108902226;0.11927982;0.101650413;0.11327832;0.098024506;0.084021005;1;0.449487372;0.271192798;0.425606402;0.323580895;0.428107027;0.351087772;1;0.3975994;0.277694424;0.242185546;0.446736684;0.239184796;1;0.179544886;0.169417354;0.321455364;0.162165541;1;0.41847962;0.268317079;0.392473118;1;0.230057514;0.34096024;1;0.26344086;1;-3.60351;-1.24183;-2.00575;-2.23539
0;S6;Resting Open;1;0.114153538;0.102900725;0.092023006;0.125906477;0.137659415;0.103150788;0.110402601;1;0.509627407;0.286446612;0.437109277;0.293448362;0.409602401;0.423980995;1;0.354713678;0.356339085;0.254938735;0.455363841;0.353213303;1;0.224056014;0.173043261;0.34396099;0.219054764;1;0.438109527;0.303700925;0.491872968;1;0.238809702;0.379219805;1;0.347586897;1;2.03189;1.69034;1.31832;-0.864265
0;S7;Resting Open;1;0.113153288;0.116904226;0.116404101;0.11227807;0.104901225;0.103900975;0.090272568;1;0.529757439;0.489497374;0.515628907;0.351837959;0.449237309;0.43335834;1;0.592648162;0.36084021;0.253688422;0.454488622;0.319579895;1;0.334708677;0.245686422;0.427856964;0.285571393;1;0.481495374;0.335208802;0.473368342;1;0.249812453;0.427731933;1;0.351712928;1;9.97717;5.47209;4.47434;4.89725
0;S10;Resting Open;1;0.103275819;0.096899225;0.095273818;0.105526382;0.112778195;0.1004001;0.10340085;1;0.653663416;0.469242311;0.572393098;0.366466617;0.525381345;0.553888472;1;0.685296324;0.387971993;0.271192798;0.656789197;0.389847462;1;0.29619905;0.221180295;0.555513878;0.293698425;1;0.577269317;0.333708427;0.722305576;1;0.239059765;0.494248562;1;0.34496124;1;13.9962;10.2252;12.5884;8.66226
0;S11;Resting Open;1;0.14616154;0.139284821;0.135908977;0.151787947;0.146286572;0.119404851;0.125656414;1;0.654788697;0.45323831;0.696674169;0.362215554;0.48312078;0.486496624;1;0.601275319;0.493623406;0.285446362;0.549387347;0.383595899;1;0.352088022;0.222805701;0.511002751;0.293323331;1;0.449487372;0.413103276;0.558139535;1;0.25743936;0.377094274;1;0.424981245;1;15.4268;8.88338;9.29278;8.20872
0;S15;Resting Open;1;0.11527882;0.113153288;0.127031758;0.123780945;0.125031258;0.089522381;0.087021755;1;0.594273568;0.425356339;0.6004001;0.327456864;0.431357839;0.323205801;1;0.568642161;0.385971493;0.251687922;0.415353838;0.231432858;1;0.285946487;0.205926482;0.382470618;0.190422606;1;0.498499625;0.339084771;0.395473868;1;0.22068017;0.298324581;1;0.368717179;1;4.7041;2.85946;0.808483;3.63674
0;S16;Resting Open;1;0.126656664;0.114403601;0.117904476;0.132908227;0.139409852;0.110152538;0.111277819;1;0.453363341;0.402225556;0.431982996;0.319704926;0.363215804;0.342835709;1;0.440735184;0.340585146;0.246186547;0.381595399;0.290947737;1;0.316829207;0.24656164;0.369217304;0.263315829;1;0.404476119;0.307701925;0.3975994;1;0.231932983;0.301575394;1;0.313203301;1;3.48988;0.339971;-1.05399;0.137696
0;S18;Resting Open;1;0.185046262;0.183295824;0.161415354;0.182420605;0.176294074;0.13715929;0.135908977;1;0.672793198;0.477619405;0.571892973;0.419729932;0.488872218;0.399224806;1;0.639784946;0.49299825;0.349837459;0.531632908;0.331082771;1;0.361215304;0.26044011;0.480495124;0.246061515;1;0.595148787;0.375843961;0.457364341;1;0.286196549;0.462990748;1;0.358339585;1;15.3788;9.64629;7.29361;8.8847
0;S20;Resting Open;1;0.120780195;0.114903726;0.122655664;0.139659915;0.173168292;0.115528882;0.119904976;1;0.561765441;0.396224056;0.533633408;0.4076019;0.422230558;0.451862966;1;0.538509627;0.426231558;0.320830208;0.519754939;0.35983996;1;0.342710678;0.287196799;0.42448112;0.283070768;1;0.547511878;0.332708177;0.420980245;1;0.272943236;0.382470618;1;0.381970493;1;12.3895;6.94267;5.0258;5.18088
0;S21;Resting Open;1;0.121655414;0.111027757;0.104776194;0.138034509;0.141910478;0.100150038;0.118904726;1;0.503125781;0.411227807;0.524131033;0.362965741;0.395098775;0.409352338;1;0.503875969;0.360715179;0.252563141;0.387846962;0.2931983;1;0.304951238;0.218304576;0.366216554;0.25943986;1;0.469992498;0.318579645;0.443610903;1;0.241810453;0.376344086;1;0.363340835;1;6.41692;3.56177;1.37752;2.11874
0;S22;Resting Open;1;0.196424106;0.190297574;0.192673168;0.186171543;0.195673918;0.155663916;0.15503876;1;0.569142286;0.499249812;0.58652163;0.438609652;0.459864966;0.455488872;1;0.582395599;0.506376594;0.374093523;0.436109027;0.387471868;1;0.437859465;0.346211553;0.41447862;0.33595899;1;0.536259065;0.447486872;0.533133283;1;0.36684171;0.465991498;1;0.46124031;1;22.2497;11.9375;7.85558;8.91148
0;S24;Resting Open;1;0.112903226;0.110027507;0.106026507;0.11627907;0.109527382;0.080645161;0.082395599;1;0.499749937;0.331332833;0.567891973;0.374093523;0.363090773;0.4056014;1;0.436984246;0.366966742;0.242310578;0.375093773;0.276819205;1;0.257189297;0.194298575;0.30220055;0.197549387;1;0.547636909;0.277194299;0.487871968;1;0.1987997;0.414228557;1;0.320455114;1;2.30102;3.25483;-0.116683;-0.130488
0;S25;Resting Open;1;0.097524381;0.0963991;0.088897224;0.089147287;0.075643911;0.103775944;0.092148037;1;0.506501625;0.290697674;0.486871718;0.238059515;0.446736684;0.400725181;1;0.488497124;0.298324581;0.170917729;0.588647162;0.255938985;1;0.195548887;0.134908727;0.388972243;0.162415604;1;0.45923981;0.268442111;0.546886722;1;0.155163791;0.353088272;1;0.269317329;1;-3.87251;-0.3702;2.20162;-0.490548
0;S26;Resting Open;1;0.080145036;0.074018505;0.076144036;0.069517379;0.069517379;0.081770443;0.08452113;1;0.319329832;0.230932733;0.254688672;0.131282821;0.276944236;0.235933983;1;0.41747937;0.252563141;0.146911728;0.436984246;0.244811203;1;0.177419355;0.123030758;0.291697924;0.175668917;1;0.195548887;0.214803701;0.348337084;1;0.13415854;0.17791948;1;0.24256064;1;-13.522;-10.3221;-7.37245;-7.5923
0;S27;Resting Open;1;0.067141785;0.071017754;0.068142036;0.072393098;0.068767192;0.070267567;0.08252063;1;0.47711928;0.360215054;0.396349087;0.29419855;0.228932233;0.3012003;1;0.500750188;0.342710678;0.253063266;0.266691673;0.248437109;1;0.262565641;0.200425106;0.247436859;0.207426857;1;0.409352338;0.199674919;0.355213803;1;0.16304076;0.314828707;1;0.199049762;1;-3.93789;-2.80367;-6.44484;-3.39803
0;S28;Resting Open;1;0.075268817;0.080020005;0.083770943;0.076644161;0.068017004;0.095648912;0.077019255;1;0.214428607;0.230807702;0.191922981;0.13215804;0.238309577;0.151537884;1;0.344461115;0.184296074;0.12528132;0.318454614;0.155413853;1;0.185171293;0.119404851;0.398349587;0.146661665;1;0.252313078;0.208052013;0.304951238;1;0.129407352;0.251312828;1;0.182670668;1;-16.908;-12.3173;-10.0118;-9.29089
0;S29;Resting Open;1;0.083895974;0.085146287;0.078269567;0.071267817;0.071142786;0.109152288;0.096024006;1;0.415353838;0.254313578;0.400475119;0.19579895;0.311202801;0.368217054;1;0.345211303;0.280070018;0.158789697;0.331957989;0.268942236;1;0.171167792;0.130532633;0.245936484;0.154538635;1;0.346211553;0.199299825;0.39659915;1;0.128157039;0.256564141;1;0.314453613;1;-9.57182;-5.6519;-5.82124;-6.43851
0;S30;Resting Open;1;0.069392348;0.071142786;0.069267317;0.060140035;0.059014754;0.080270068;0.071142786;1;0.632908227;0.337834459;0.326331583;0.273693423;0.405476369;0.35383846;1;0.480370093;0.236309077;0.216179045;0.442735684;0.273943486;1;0.146661665;0.173168292;0.336084021;0.182295574;1;0.286446612;0.17591898;0.245311328;1;0.201925481;0.434483621;1;0.335083771;1;-3.96857;-2.44434;-2.39623;-1.4506
0;S31;Resting Open;1;0.073643411;0.075018755;0.073643411;0.064391098;0.075268817;0.079269817;0.088397099;1;0.425731433;0.375218805;0.301450363;0.254688672;0.351337834;0.279694924;1;0.420105026;0.278569642;0.215553888;0.327331833;0.240810203;1;0.227306827;0.192048012;0.292948237;0.207176794;1;0.288322081;0.241185296;0.259689922;1;0.209302326;0.252813203;1;0.27831958;1;-4.95832;-5.21573;-6.17756;-3.58718
0;S32;Resting Open;1;0.067266817;0.065766442;0.069642411;0.067266817;0.069267317;0.070642661;0.076019005;1;0.586021505;0.379219805;0.515128782;0.293573393;0.481495374;0.430482621;1;0.532133033;0.370842711;0.222555639;0.548262066;0.317329332;1;0.263940985;0.18292073;0.429982496;0.228307077;1;0.376469117;0.322705676;0.408227057;1;0.212553138;0.306076519;1;0.390347587;1;4.51098;2.07568;3.7463;3.15881
0;S33;Resting Open;1;0.067016754;0.068392098;0.068642161;0.059514879;0.063390848;0.071642911;0.069642411;1;0.485246312;0.32008002;0.331582896;0.198174544;0.403225806;0.305326332;1;0.527131783;0.220430108;0.150912728;0.504876219;0.204176044;1;0.159289822;0.11827957;0.427856964;0.146286572;1;0.308702176;0.208927232;0.426856714;1;0.138284571;0.293823456;1;0.220805201;1;-9.68736;-5.69332;-2.01034;-2.6416
0;S34;Resting Open;1;0.07251813;0.067516879;0.069767442;0.071767942;0.069267317;0.086896724;0.093148287;1;0.489997499;0.314953738;0.388847212;0.213303326;0.33395849;0.244686172;1;0.541010253;0.232058015;0.150787697;0.363965991;0.174793698;1;0.180170043;0.127781945;0.34196049;0.142285571;1;0.440485121;0.22568142;0.324206052;1;0.149037259;0.258939735;1;0.267941985;1;-9.25324;-5.4632;-5.50044;-3.05076
0;S35;Resting Open;1;0.071767942;0.073893473;0.070142536;0.068642161;0.070142536;0.08052013;0.093023256;1;0.521755439;0.379594899;0.495498875;0.239309827;0.433233308;0.250312578;1;0.493123281;0.355463866;0.180170043;0.430482621;0.212428107;1;0.250437609;0.145911478;0.354588647;0.167291823;1;0.355713928;0.319329832;0.296449112;1;0.183670918;0.228182046;1;0.280445111;1;-3.46873;-3.07726;-2.94328;-0.117274
0;S36;Resting Open;1;0.068767192;0.058889722;0.059264816;0.073143286;0.056264066;0.082020505;0.085396349;1;0.500250063;0.279694924;0.440860215;0.197049262;0.348837209;0.296949237;1;0.38572143;0.302575644;0.164791198;0.363090773;0.232308077;1;0.200425106;0.146411603;0.270567642;0.16204051;1;0.263565891;0.246186547;0.318704676;1;0.151912978;0.194673668;1;0.341460365;1;-7.96129;-5.91733;-5.7625;-4.44999
0;S37;Resting Open;1;0.07951988;0.082645661;0.085646412;0.072393098;0.067766942;0.089022256;0.08352088;1;0.472993248;0.276194049;0.472368092;0.192923231;0.438609652;0.433233308;1;0.472993248;0.267066767;0.143785946;0.70180045;0.270692673;1;0.168917229;0.106276569;0.430357589;0.16404101;1;0.35283821;0.249562391;0.568142036;1;0.138534634;0.301700425;1;0.282820705;1;-6.27817;-2.41666;3.22934;-1.44477
0;S3;Resting;1;0.136409102;0.127031758;0.114153538;0.116404101;0.128532133;0.104026007;0.115028757;1;0.470742686;0.369092273;0.534883721;0.308577144;0.38472118;0.448612153;1;0.432233058;0.31607902;0.215553888;0.370717679;0.280195049;1;0.245686422;0.172043011;0.323830958;0.228057014;1;0.364966242;0.294573643;0.501625406;1;0.194048512;0.351462866;1;0.295823956;1;0.513468;0.727547;-0.181586;-1.0441
0;S5;Resting;1;0.099024756;0.109652413;0.119529882;0.096274069;0.099774944;0.088647162;0.075893973;1;0.397724431;0.219804951;0.454988747;0.292823206;0.406476619;0.326706677;1;0.450612653;0.224306077;0.188172043;0.421355339;0.175543886;1;0.140535134;0.131532883;0.308327082;0.122030508;1;0.447986997;0.245186297;0.433108277;1;0.190672668;0.331082771;1;0.230807702;1;-8.66103;-3.14714;-3.50025;-3.83006
0;S6;Resting;1;0.122405601;0.119779945;0.100775194;0.13515879;0.13215804;0.112778195;0.12428107;1;0.563390848;0.308702176;0.434233558;0.242185546;0.346211553;0.373593398;1;0.3995999;0.340460115;0.209802451;0.383220805;0.320330083;1;0.219179795;0.161415354;0.362715679;0.222930733;1;0.3935984;0.254688672;0.441610403;1;0.196049012;0.410727682;1;0.331707927;1;-0.745335;-0.254561;-0.698517;-1.56668
0;S7;Resting;1;0.146911728;0.138659665;0.135033758;0.146661665;0.138909727;0.119779945;0.127406852;1;0.551637909;0.49899975;0.473993498;0.352963241;0.456364091;0.423355839;1;0.623655914;0.383970993;0.276069017;0.481370343;0.317579395;1;0.353963491;0.249937484;0.474743686;0.286571643;1;0.47911978;0.32708177;0.433108277;1;0.252563141;0.430732683;1;0.336459115;1;10.7383;5.49211;4.95426;5.82587
0;S10;Resting;1;0.094273568;0.09539885;0.094898725;0.105776444;0.121155289;0.090522631;0.0943986;1;0.613653413;0.430107527;0.550512628;0.355338835;0.560765191;0.508377094;1;0.687296824;0.370592648;0.267191798;0.785946487;0.339209802;1;0.274443611;0.216554139;0.62728182;0.246186547;1;0.60340085;0.342835709;0.71467867;1;0.244936234;0.484621155;1;0.337834459;1;11.9686;9.34457;13.5907;8.99914
0;S11;Resting;1;0.129032258;0.113028257;0.102900725;0.130782696;0.131907977;0.081270318;0.097149287;1;0.683420855;0.463990998;0.77331833;0.498624656;0.413228307;0.533133283;1;0.628157039;0.564891223;0.38372093;0.519379845;0.43235809;1;0.386846712;0.293323331;0.479869967;0.319579895;1;0.624156039;0.372093023;0.621655414;1;0.26744186;0.492623156;1;0.416354089;1;21.8023;14.3403;10.889;9.95924
0;S15;Resting;1;0.117904476;0.118529632;0.121405351;0.115153788;0.11627907;0.083770943;0.075143786;1;0.605526382;0.426606652;0.553138285;0.307326832;0.420855214;0.332333083;1;0.636409102;0.346836709;0.217804451;0.42748187;0.222805701;1;0.254563641;0.176419105;0.370717679;0.173418355;1;0.51487872;0.297699425;0.406476619;1;0.197049262;0.314203551;1;0.326706677;1;1.79683;1.79104;0.403767;3.06398
0;S16;Resting;1;0.103525881;0.102775694;0.109277319;0.11927982;0.136284071;0.089772443;0.096649162;1;0.540260065;0.442235559;0.531007752;0.369092273;0.445236309;0.424106027;1;0.535633908;0.429107277;0.325456364;0.414728682;0.332833208;1;0.376344086;0.311827957;0.381095274;0.276069017;1;0.527506877;0.374593648;0.493873468;1;0.279444861;0.370967742;1;0.395473868;1;13.2312;7.03893;4.11304;5.20487
0;S18;Resting;1;0.129782446;0.121780445;0.110527632;0.141410353;0.149537384;0.099899975;0.110902726;1;0.597649412;0.387846962;0.467866967;0.304076019;0.397724431;0.304576144;1;0.565141285;0.338084521;0.227806952;0.444236059;0.229432358;1;0.250062516;0.185671418;0.375968992;0.17491873;1;0.520755189;0.269067267;0.391097774;1;0.190797699;0.388847212;1;0.253563391;1;-0.0628112;1.00088;-0.441751;1.61152
0;S20;Resting;1;0.120905226;0.110027507;0.129657414;0.152788197;0.175793948;0.094648662;0.109902476;1;0.452363091;0.34096024;0.444236059;0.304076019;0.330582646;0.431357839;1;0.494748687;0.368717179;0.242060515;0.509002251;0.372093023;1;0.344336084;0.248687172;0.404726182;0.286946737;1;0.582770693;0.273943486;0.434483621;1;0.177794449;0.29819955;1;0.394848712;1;5.77273;2.42699;2.30392;1.19501
0;S21;Resting;1;0.0983996;0.098774694;0.095023756;0.103775944;0.113028257;0.080395099;0.081270318;1;0.48512128;0.35983996;0.463990998;0.302700675;0.349837459;0.344586147;1;0.523630908;0.294948737;0.210052513;0.353713428;0.238684671;1;0.232683171;0.166666667;0.3052013;0.18392098;1;0.469617404;0.256939235;0.416354089;1;0.183170793;0.325831458;1;0.305701425;1;-2.13994;-0.751054;-2.61661;-1.1501
0;S22;Resting;1;0.223805951;0.220805201;0.220930233;0.209552388;0.202050513;0.156914229;0.155538885;1;0.682670668;0.56364091;0.655288822;0.437484371;0.468492123;0.44536134;1;0.652413103;0.514753688;0.350087522;0.45823956;0.365966492;1;0.43635909;0.325206302;0.416354089;0.298449612;1;0.539009752;0.399224806;0.490122531;1;0.284196049;0.367091773;1;0.453988497;1;20.14;10.9515;7.38207;9.89905
0;S24;Resting;1;0.131657914;0.121405351;0.108527132;0.132783196;0.134908727;0.085646412;0.0943986;1;0.534508627;0.307451863;0.624781195;0.443610903;0.37971993;0.467491873;1;0.474743686;0.343335834;0.266316579;0.473993498;0.272443111;1;0.220180045;0.188422106;0.309327332;0.184171043;1;0.678294574;0.249312328;0.595523881;1;0.194673668;0.487621905;1;0.253063266;1;2.88559;6.17755;2.65587;0.926646
0;S25;Resting;1;0.077644411;0.075768942;0.074143536;0.069642411;0.055888972;0.083770943;0.084396099;1;0.465741435;0.25243811;0.455738935;0.216929232;0.391222806;0.363590898;1;0.407851963;0.27731933;0.147411853;0.563140785;0.235433858;1;0.169292323;0.107901975;0.356589147;0.155913978;1;0.418854714;0.23955989;0.519754939;1;0.13315829;0.322455614;1;0.243060765;1;-8.24006;-3.15873;-0.529473;-3.3232
0;S26;Resting;1;0.066266567;0.068517129;0.062265566;0.066266567;0.058389597;0.066391598;0.065891473;1;0.316579145;0.208177044;0.265566392;0.140285071;0.246436609;0.249937484;1;0.458864716;0.188797199;0.113778445;0.484246062;0.182170543;1;0.136034009;0.095523881;0.346336584;0.131907977;1;0.267191798;0.163290823;0.415853963;1;0.102150538;0.209677419;1;0.179794949;1;-17.3814;-10.8898;-6.96665;-8.17929
0;S27;Resting;1;0.075643911;0.086021505;0.088397099;0.080145036;0.083395849;0.078769692;0.073643411;1;0.41847962;0.321705426;0.358589647;0.232683171;0.254063516;0.234933733;1;0.490497624;0.300950238;0.192173043;0.301575394;0.203925981;1;0.238059515;0.173293323;0.312578145;0.172168042;1;0.399349837;0.18692173;0.303325831;1;0.13615904;0.236809202;1;0.204301075;1;-8.73793;-6.23465;-7.61566;-4.57779
0;S28;Resting;1;0.069267317;0.067391848;0.067266817;0.066266567;0.06464116;0.069392348;0.067391848;1;0.326581645;0.266191548;0.257814454;0.134408602;0.317829457;0.222930733;1;0.428982246;0.226431608;0.131407852;0.402350588;0.184796199;1;0.1987997;0.127531883;0.375843961;0.167291823;1;0.302450613;0.21667917;0.460990248;1;0.124531133;0.269067267;1;0.215803951;1;-12.7492;-8.60522;-5.66269;-6.26594
0;S29;Resting;1;0.093898475;0.090397599;0.0963991;0.091272818;0.088022006;0.10140035;0.088022006;1;0.500500125;0.278194549;0.459989997;0.236684171;0.359339835;0.429857464;1;0.460865216;0.294948737;0.191422856;0.444236059;0.290572643;1;0.200175044;0.156914229;0.326206552;0.182170543;1;0.429482371;0.215053763;0.468867217;1;0.145536384;0.284196049;1;0.292698175;1;-4.54719;-1.85439;-1.13497;-2.58653
0;S30;Resting;1;0.071142786;0.074893723;0.068267067;0.065141285;0.064766192;0.087646912;0.074768692;1;0.643410853;0.311577894;0.356964241;0.238184546;0.480995249;0.370092523;1;0.468242061;0.252313078;0.18492123;0.525131283;0.260065016;1;0.162415604;0.130907727;0.340710178;0.157289322;1;0.332833208;0.208802201;0.343210803;1;0.164791198;0.400100025;1;0.303950988;1;-5.42767;-2.25464;-0.529593;-1.03568
0;S31;Resting;1;0.064891223;0.068267067;0.068017004;0.061890473;0.055513878;0.07951988;0.064516129;1;0.225806452;0.176044011;0.34196049;0.232183046;0.252813203;0.318954739;1;0.403350838;0.13315829;0.134658665;0.347211803;0.164666167;1;0.11327832;0.110027507;0.307326832;0.142285571;1;0.260065016;0.155663916;0.31207802;1;0.143410853;0.286196549;1;0.228182046;1;-16.0346;-9.68163;-8.60373;-9.23797
0;S32;Resting;1;0.048512128;0.051262816;0.058014504;0.053888472;0.060140035;0.053513378;0.055513878;1;0.588147037;0.344211053;0.532133033;0.332083021;0.461740435;0.410977744;1;0.542135534;0.356339085;0.231307827;0.537134284;0.282820705;1;0.243685921;0.179419855;0.371092773;0.187421855;1;0.508877219;0.284196049;0.426731683;1;0.205926482;0.376469117;1;0.335708927;1;2.69001;3.01659;2.68829;2.49973
0;S33;Resting;1;0.06164041;0.063015754;0.065016254;0.061015254;0.069142286;0.067516879;0.066516629;1;0.434483621;0.21467867;0.307951988;0.118154539;0.338084521;0.259314829;1;0.446861715;0.166916729;0.090772693;0.418104526;0.149537384;1;0.110027507;0.084646162;0.293323331;0.100150038;1;0.239309827;0.149037259;0.473618405;1;0.081270318;0.205301325;1;0.163915979;1;-19.0445;-10.7171;-7.19512;-8.02246
0;S34;Resting;1;0.068267067;0.070017504;0.070517629;0.070142536;0.063140785;0.075143786;0.093023256;1;0.528132033;0.33895974;0.441485371;0.233183296;0.414103526;0.251062766;1;0.574018505;0.267566892;0.166916729;0.401975494;0.178169542;1;0.205176294;0.151537884;0.318204551;0.141660415;1;0.489997499;0.26744186;0.353713428;1;0.161290323;0.259189797;1;0.302075519;1;-5.84713;-3.02338;-3.53603;-0.784989
0;S35;Resting;1;0.067141785;0.069267317;0.070892723;0.067016754;0.056264066;0.082020505;0.089147287;1;0.502750688;0.404976244;0.482995749;0.227556889;0.401725431;0.236184046;1;0.491997999;0.344836209;0.181295324;0.418354589;0.209427357;1;0.282195549;0.148787197;0.374843711;0.15703926;1;0.357589397;0.285696424;0.281195299;1;0.170292573;0.229557389;1;0.250562641;1;-4.34137;-3.83511;-3.70055;-0.519913
0;S36;Resting;1;0.08052013;0.078894724;0.082645661;0.070017504;0.08152038;0.07551888;0.069767442;1;0.513253313;0.268692173;0.441485371;0.222930733;0.416104026;0.297324331;1;0.464741185;0.275818955;0.158664666;0.512253063;0.206301575;1;0.173418355;0.120405101;0.32208052;0.134533633;1;0.408727182;0.249687422;0.456864216;1;0.153163291;0.326831708;1;0.262190548;1;-7.92565;-3.23145;-1.8729;-2.48025
0;S37;Resting;1;0.059514879;0.056014004;0.061390348;0.055513878;0.050012503;0.062390598;0.056514129;1;0.365466367;0.181420355;0.390972743;0.109152288;0.348087022;0.360590148;1;0.409602401;0.195548887;0.096774194;0.732683171;0.208177044;1;0.118529632;0.084021005;0.383095774;0.123530883;1;0.232183046;0.18292073;0.552138035;1;0.091272818;0.198049512;1;0.218554639;1;-16.0821;-8.85251;-1.32135;-6.58745
0;S3;Visual field;1;0.186268203;0.168021522;0.173021814;0.174483888;0.176472308;0.14916077;0.152231125;1;0.595707351;0.482074975;0.615767004;0.442482016;0.457541377;0.530089479;1;0.554740043;0.466343061;0.349026259;0.434294403;0.400842155;1;0.375694485;0.301801275;0.390549155;0.329405228;1;0.505994503;0.396368209;0.596584596;1;0.302356863;0.462249254;1;0.41224633;1;18.6781;11.103;7.87596;7.24088
0;S5;Visual field;1;0.128516288;0.132697819;0.136762384;0.126235452;0.13152816;0.112930581;0.108778291;1;0.42332885;0.28267735;0.441663255;0.31437511;0.414995029;0.347739634;1;0.417714486;0.283642318;0.236037195;0.450728113;0.237937891;1;0.209602901;0.190449734;0.351599509;0.179250249;1;0.413796128;0.296684017;0.401193052;1;0.237879408;0.344435347;1;0.278261887;1;-2.03232;-0.848877;-1.37274;-1.57843
0;S6;Visual field;1;0.094748525;0.089228343;0.089199135;0.098808342;0.108592792;0.085372977;0.099859805;1;0.400607512;0.29440972;0.321105205;0.261405456;0.379023307;0.359658859;1;0.394882879;0.244436007;0.19297272;0.452888603;0.272504235;1;0.181611075;0.157398213;0.365062212;0.205823938;1;0.370494772;0.247531982;0.375489223;1;0.204129914;0.370377943;1;0.313248437;1;-4.5378;-3.0719;-2.02198;-3.28862
0;S7;Visual field;1;0.140282727;0.144955897;0.132221508;0.16166248;0.158741749;0.124861265;0.136836264;1;0.542467434;0.486827502;0.485717624;0.331327764;0.490507623;0.459255798;1;0.579735966;0.407996962;0.282317892;0.511011157;0.368479467;1;0.362491968;0.250394299;0.482913722;0.321455693;1;0.48793738;0.36877154;0.482037502;1;0.262836614;0.409165255;1;0.413575559;1;13.5126;6.69156;6.96893;6.4304
0;S10;Visual field;1;0.110958584;0.110491267;0.11393773;0.116916876;0.123021205;0.099071207;0.10654828;1;0.64916175;0.453268298;0.608417548;0.331123313;0.539050178;0.550528652;1;0.644284129;0.4388983;0.267509784;0.64329108;0.404930195;1;0.328523862;0.224604241;0.526753899;0.299024476;1;0.473859454;0.375138735;0.692388574;1;0.230504118;0.425141655;1;0.369092821;1;14.241;9.22949;11.9324;8.28886
0;S11;Visual field;1;0.1263733;0.120642556;0.12168181;0.126937467;0.141516717;0.100065325;0.1120019;1;0.59682879;0.436427341;0.59522537;0.412940198;0.42992458;0.465437378;1;0.58026011;0.420185284;0.317239741;0.450620583;0.359908546;1;0.318872855;0.256161292;0.394530554;0.274838173;1;0.520517845;0.328433993;0.484708118;1;0.255775284;0.39289744;1;0.364926658;1;12.0359;7.4442;4.94726;5.37324
0;S15;Visual field;1;0.111000643;0.10816422;0.111029885;0.11488976;0.114334172;0.080998889;0.082636411;1;0.516521434;0.334697936;0.575852389;0.283320662;0.454880402;0.338820984;1;0.476519095;0.327621498;0.192496637;0.425258787;0.218433827;1;0.229136207;0.160769636;0.343938242;0.164190888;1;0.450991286;0.321568513;0.41938125;1;0.191882566;0.295397392;1;0.322094859;1;-1.3336;0.0515616;-0.628265;0.30222
0;S16;Visual field;1;0.125358208;0.12758056;0.128311597;0.135124861;0.149277736;0.109830984;0.123691444;1;0.536756535;0.443914849;0.475524884;0.340516989;0.423182642;0.420550909;1;0.546874086;0.417685245;0.311129306;0.438417451;0.356687526;1;0.368033218;0.288788818;0.403473887;0.300573133;1;0.459149658;0.347359495;0.45800924;1;0.262003626;0.359026844;1;0.366454179;1;11.5466;5.27564;3.71965;4.4546
0;S18;Visual field;1;0.154565103;0.144663824;0.140750044;0.169139553;0.179683393;0.107950231;0.12328407;1;0.604211695;0.445674397;0.527600911;0.329575326;0.435831532;0.353028798;1;0.571295052;0.42008879;0.260908932;0.464805187;0.273993808;1;0.325427887;0.221362229;0.40171739;0.217944973;1;0.53098896;0.309217828;0.439716105;1;0.20483089;0.396576903;1;0.283486185;1;6.02034;4.1044;2.43483;4.14467
0;S20;Visual field;1;0.120131994;0.115583566;0.115583566;0.135382603;0.158392294;0.101700458;0.11448362;1;0.628277543;0.449491646;0.583922944;0.405493787;0.439235389;0.52078007;1;0.592900886;0.478446994;0.339229443;0.536625245;0.445240502;1;0.380819311;0.300463761;0.427373803;0.327189488;1;0.565610322;0.337743029;0.470360901;1;0.253522802;0.368303704;1;0.429633153;1;17.1204;9.4816;7.80198;7.38464
0;S21;Visual field;1;0.126058765;0.11948712;0.115193644;0.134295228;0.146825165;0.105934926;0.113879315;1;0.542555056;0.416729949;0.517758047;0.38366727;0.424031778;0.383579648;1;0.564051639;0.372480869;0.296308196;0.418365559;0.314299901;1;0.29800222;0.248116128;0.384309831;0.256936737;1;0.536071032;0.358286115;0.460248846;1;0.297797769;0.422366961;1;0.408756353;1;10.3904;6.11192;3.30236;4.43048
0;S22;Visual field;1;0.215608388;0.212629242;0.218996437;0.21254162;0.229978387;0.174367662;0.172878089;1;0.666306443;0.557275542;0.646912787;0.494158537;0.51369823;0.492026403;1;0.628570594;0.545125299;0.424703546;0.515713535;0.427828728;1;0.460920615;0.384339038;0.4632572;0.357585139;1;0.583912612;0.478006893;0.553537006;1;0.377416905;0.449004031;1;0.500642561;1;28.0325;15.3899;11.4477;12.4941
0;S24;Visual field;1;0.133575063;0.127492836;0.117726183;0.137844318;0.137698111;0.094391485;0.098046669;1;0.515761156;0.322591964;0.579332125;0.356131938;0.382361542;0.403473887;1;0.433387917;0.372653372;0.252734078;0.40432189;0.273466285;1;0.261155623;0.203286742;0.296391602;0.191268495;1;0.54555822;0.28367156;0.481168489;1;0.197818586;0.378794082;1;0.311918826;1;2.16999;3.08838;0.027316;0.0813715
0;S25;Visual field;1;0.075975057;0.070533561;0.07397494;0.069268781;0.064503794;0.084122595;0.077622213;1;0.320430614;0.254750279;0.409818225;0.222395435;0.383934349;0.337019825;1;0.296105653;0.186040355;0.125625037;0.355844461;0.166568622;1;0.153391376;0.110271192;0.350432378;0.135625625;1;0.414906759;0.206570975;0.44908524;1;0.13356668;0.339461145;1;0.218954056;1;-12.3043;-5.85876;-5.0252;-6.62894
0;S26;Visual field;1;0.097406391;0.095303464;0.080320112;0.087855599;0.078918161;0.10970267;0.110958584;1;0.438314154;0.255447164;0.340644897;0.195309305;0.396635317;0.380103978;1;0.462088907;0.246100824;0.151498335;0.504410304;0.290408318;1;0.16437876;0.118990595;0.302850634;0.179216076;1;0.346457153;0.241427653;0.449325311;1;0.157661078;0.269875577;1;0.34137508;1;-7.27402;-4.36874;-1.66495;-3.75213
0;S27;Visual field;1;0.060909995;0.062284344;0.062313586;0.060325165;0.061962688;0.06061758;0.061582549;1;0.329259021;0.267939646;0.224720744;0.182232879;0.207058892;0.171062635;1;0.388122112;0.221796596;0.17591672;0.2480262;0.167758348;1;0.180566115;0.140476051;0.254020703;0.142581438;1;0.212819463;0.154073338;0.179630388;1;0.12679104;0.173986783;1;0.16343061;1;-16.5958;-12.3552;-12.9971;-9.37945
0;S28;Visual field;1;0.073396105;0.074039418;0.075443008;0.069506989;0.06003275;0.083250482;0.073922452;1;0.250277794;0.255278086;0.257675887;0.175010235;0.305281011;0.220714662;1;0.27258904;0.190683666;0.137347213;0.287531435;0.166237792;1;0.19156091;0.129042634;0.335692146;0.15173402;1;0.301216445;0.230422832;0.31001813;1;0.154833616;0.25296801;1;0.218726241;1;-14.1562;-9.96533;-9.26823;-8.59858
0;S29;Visual field;1;0.068549565;0.069951516;0.070360418;0.06577487;0.066826333;0.085548221;0.073485601;1;0.407734097;0.261084175;0.42487879;0.259419359;0.345464104;0.362199895;1;0.329546118;0.288363806;0.193498452;0.39628483;0.273468076;1;0.201968573;0.154360652;0.299988317;0.179420527;1;0.405134646;0.261493078;0.468777382;1;0.183889246;0.339651849;1;0.319440388;1;-4.86456;-2.36699;-2.77436;-4.29511
0;S30;Visual field;1;0.056253286;0.058210176;0.0575092;0.053624628;0.055435481;0.068900053;0.062912553;1;0.636456569;0.319177522;0.453998481;0.281178807;0.399526842;0.390092879;1;0.454173725;0.335037093;0.230854606;0.441351714;0.306881243;1;0.200537415;0.169373211;0.356037152;0.193352415;1;0.368391845;0.235644605;0.366610199;1;0.196769671;0.42563818;1;0.332612886;1;-0.330617;0.453333;-0.0380099;-0.144361
0;S31;Visual field;1;0.06240131;0.063658693;0.066787531;0.064799111;0.064009591;0.069097608;0.070647406;1;0.374671033;0.296917948;0.273758699;0.203286742;0.320077197;0.254430084;1;0.370401778;0.232294286;0.171998362;0.318790573;0.210889526;1;0.184279782;0.146558278;0.26603895;0.167144277;1;0.266565296;0.224077431;0.266536055;1;0.169103456;0.224808468;1;0.254985672;1;-11.0001;-8.34381;-8.41771;-6.5897
0;S32;Visual field;1;0.066904497;0.069857886;0.069740921;0.067869466;0.064331247;0.075326042;0.076086321;1;0.59866074;0.404526581;0.551932862;0.311392479;0.475466402;0.430960875;1;0.521901866;0.428797006;0.251359729;0.526288087;0.353295514;1;0.311655652;0.202351015;0.40669045;0.247558337;1;0.398210422;0.342242236;0.415082753;1;0.2198959;0.293701386;1;0.426545412;1;7.85148;3.64865;4.20257;4.11
0;S33;Visual field;1;0.065120767;0.067518568;0.067079946;0.064652904;0.063366279;0.070354992;0.066436634;1;0.531610036;0.372565647;0.328674191;0.223083221;0.439499386;0.349815779;1;0.54675712;0.247499854;0.178226797;0.49801158;0.253932979;1;0.186736066;0.148546699;0.426662378;0.194221884;1;0.29378911;0.214486227;0.366074039;1;0.16442482;0.29416925;1;0.290572548;1;-4.93315;-3.8488;-0.664721;-0.738589
0;S34;Visual field;1;0.076057079;0.078718054;0.078191707;0.070969063;0.064126557;0.093338792;0.099333294;1;0.506491608;0.28665419;0.370109363;0.149423943;0.350576057;0.292093105;1;0.470904731;0.237616235;0.113807825;0.408181765;0.208930347;1;0.168401661;0.098192877;0.317211533;0.154131821;1;0.33399614;0.224808468;0.364495;1;0.114655828;0.197409205;1;0.275103807;1;-11.54;-7.29094;-5.21211;-4.56962
0;S35;Visual field;1;0.085004971;0.084624832;0.086730218;0.080911164;0.084683315;0.107696357;0.112579683;1;0.456751857;0.372594889;0.426194514;0.219252588;0.354933037;0.238990584;1;0.508333821;0.320574303;0.178899351;0.399877186;0.217264167;1;0.260629277;0.156734312;0.354816071;0.177466519;1;0.310369027;0.27416808;0.266506813;1;0.181326393;0.222001287;1;0.282794315;1;-5.11763;-5.00897;-4.71071;-1.73927
0;S36;Visual field;1;0.05804433;0.059272472;0.060734546;0.062518276;0.060471373;0.058950816;0.066933739;1;0.459295865;0.299988303;0.425960582;0.231300076;0.36092754;0.279256097;1;0.444148781;0.27217966;0.171179601;0.403649336;0.201122873;1;0.186268203;0.136206796;0.312503655;0.144160477;1;0.355810281;0.255395052;0.382420025;1;0.16778759;0.295280426;1;0.262120592;1;-7.94968;-4.51802;-4.41925;-3.51952
0;S37;Visual field;1;0.074331832;0.076437219;0.080267852;0.071612375;0.066261185;0.08538511;0.080735716;1;0.410901222;0.229838002;0.409000526;0.164015439;0.378296976;0.381893678;1;0.443651676;0.229954968;0.121147436;0.618427978;0.230656764;1;0.149394701;0.098105152;0.401573191;0.149921048;1;0.312445172;0.22782034;0.5217849;1;0.124773379;0.258494649;1;0.263056319;1;-10.7544;-5.69892;-0.404313;-4.24136
