;Subject;Test;FCz;FCz Oz;FCz O1;FCz PO8;FCz O2;FCz PO7;FCz PO3;FCz PO4;Oz Oz;Oz O1;Oz PO8;Oz O2;Oz PO7;Oz PO3;Oz PO4;O1 O1;O1 PO8;O1 O2;O1 PO7;O1 PO3;O1 PO4;PO8 PO8;O2 PO8;PO7 PO8;PO3 PO8;PO4 PO8;O2 O2;O2 PO7;O2 PO3;O2 PO4;PO7 PO7;PO7 PO3;PO7 PO4;PO3 PO3;PO3 PO4;PO4 PO4
0;S2;Resting Open;1.0;0.19019108280254776;0.19070063694267517;0.18547770700636942;0.20331210191082802;0.20382165605095542;0.1826751592356688;0.1602547770700637;1.0;0.9509554140127389;0.673375796178344;0.6165605095541401;0.5570700636942675;0.7819108280254777;0.47477707006369424;1.0;0.6811464968152866;0.6146496815286624;0.5532484076433121;0.7877707006369427;0.47273885350318473;1.0;0.48165605095541403;0.43439490445859874;0.6557961783439491;0.3830573248407643;1.0;0.7550318471337579;0.6337579617834395;0.5903184713375796;1.0;0.5640764331210191;0.605859872611465;1.0;0.5247133757961784;1.0
0;S3;Resting Open;1.0;0.16394904458598727;0.14815286624203822;0.1529936305732484;0.15363057324840765;0.1505732484076433;0.12152866242038217;0.1431847133757962;1.0;0.5704458598726114;0.47197452229299364;0.5811464968152866;0.37477707006369426;0.4349044585987261;0.5477707006369427;1.0;0.5071337579617834;0.4405095541401274;0.28191082802547773;0.42127388535031846;0.4194904458598726;1.0;0.3354140127388535;0.23528662420382165;0.3699363057324841;0.3239490445859873;1.0;0.4078980891719745;0.35146496815286626;0.572484076433121;1.0;0.25057324840764333;0.410828025477707;1.0;0.4001273885350318;1.0
0;S5;Resting Open;1.0;0.12738853503184713;0.1378343949044586;0.13872611464968154;0.11745222929936305;0.12802547770700637;0.11885350318471338;0.11337579617834395;1.0;0.5314649681528663;0.34955414012738856;0.5089171974522293;0.39656050955414013;0.5184713375796178;0.4268789808917198;1.0;0.4853503184713376;0.3486624203821656;0.2886624203821656;0.5277707006369426;0.29197452229299364;1.0;0.24229299363057324;0.21847133757961784;0.4132484076433121;0.21414012738853502;1.0;0.5054777070063694;0.3499363057324841;0.4612738853503185;1.0;0.28420382165605096;0.4145222929936306;1.0;0.3264968152866242;1.0
0;S7;Resting Open;1.0;0.1264968152866242;0.12535031847133757;0.1178343949044586;0.13044585987261145;0.1286624203821656;0.10050955414012738;0.11401273885350319;1.0;0.6089171974522293;0.5678980891719745;0.6098089171974522;0.44089171974522295;0.5371974522292994;0.5207643312101911;1.0;0.6701910828025478;0.46993630573248407;0.33031847133757963;0.5383439490445859;0.4098089171974522;1.0;0.4322292993630573;0.31019108280254776;0.5105732484076433;0.36547770700636945;1.0;0.5537579617834395;0.43910828025477705;0.5574522292993631;1.0;0.3351592356687898;0.5031847133757962;1.0;0.4346496815286624;1.0
0;S10;Resting Open;1.0;0.11668789808917197;0.10853503184713376;0.1089171974522293;0.13006369426751593;0.13617834394904457;0.09261146496815287;0.12229299363057325;1.0;0.7026751592356688;0.5388535031847134;0.6338853503184714;0.4122292993630573;0.5615286624203821;0.6145222929936306;1.0;0.7484076433121019;0.4578343949044586;0.30713375796178344;0.6835668789808917;0.4556687898089172;1.0;0.36471337579617835;0.25643312101910826;0.609171974522293;0.3607643312101911;1.0;0.630828025477707;0.38878980891719744;0.7578343949044586;1.0;0.2677707006369427;0.5535031847133758;1.0;0.40777070063694265;1.0
0;S11;Resting Open;1.0;0.19719745222929935;0.18369426751592358;0.18305732484076434;0.189171974522293;0.18535031847133757;0.15171974522292994;0.14968152866242038;1.0;0.7090445859872612;0.5244585987261147;0.756687898089172;0.44089171974522295;0.5445859872611465;0.5580891719745223;1.0;0.6628025477707007;0.5626751592356688;0.35146496815286626;0.6193630573248408;0.45694267515923565;1.0;0.4198726114649681;0.2821656050955414;0.5857324840764331;0.35898089171974523;1.0;0.5182165605095541;0.4689171974522293;0.6248407643312102;1.0;0.31057324840764333;0.4521019108280255;1.0;0.4726114649681529;1.0
0;S13;Resting Open;1.0;0.16738853503184714;0.15184713375796177;0.14522292993630573;0.1561783439490446;0.15770700636942675;0.1349044585987261;0.15375796178343948;1.0;0.595796178343949;0.48904458598726114;0.6375796178343949;0.5002547770700637;0.4836942675159236;0.5787261146496815;1.0;0.6659872611464969;0.47936305732484075;0.3885350318471338;0.5631847133757962;0.45885350318471335;1.0;0.38611464968152864;0.329171974522293;0.5163057324840764;0.3684076433121019;1.0;0.6363057324840764;0.4303184713375796;0.7040764331210191;1.0;0.3784713375796178;0.6243312101910828;1.0;0.48394904458598725;1.0
0;S14;Resting Open;1.0;0.15439490445859871;0.1503184713375796;0.1175796178343949;0.1535031847133758;0.15439490445859871;0.12063694267515923;0.1337579617834395;1.0;0.410828025477707;0.25363057324840765;0.40687898089171975;0.3289171974522293;0.4010191082802548;0.41936305732484075;1.0;0.403312101910828;0.3526114649681529;0.28382165605095544;0.4580891719745223;0.3556687898089172;1.0;0.2135031847133758;0.18993630573248407;0.2719745222929936;0.20585987261146496;1.0;0.3885350318471338;0.32713375796178346;0.43197452229299366;1.0;0.25146496815286623;0.3503184713375796;1.0;0.38471337579617837;1.0
0;S15;Resting Open;1.0;0.14522292993630573;0.14;0.14;0.15235668789808918;0.1578343949044586;0.09859872611464968;0.09719745222929936;1.0;0.6528662420382165;0.4935031847133758;0.6401273885350318;0.3778343949044586;0.47847133757961785;0.37210191082802546;1.0;0.6336305732484077;0.435031847133758;0.2812738853503185;0.472484076433121;0.2678980891719745;1.0;0.3389808917197452;0.2356687898089172;0.4594904458598726;0.2281528662420382;1.0;0.5619108280254778;0.3845859872611465;0.44484076433121017;1.0;0.25834394904458596;0.3472611464968153;1.0;0.4210191082802548;1.0
0;S16;Resting Open;1.0;0.13031847133757962;0.11770700636942676;0.1329936305732484;0.14369426751592357;0.15643312101910828;0.12522292993630574;0.1294267515923567;1.0;0.4684076433121019;0.4368152866242038;0.49171974522292994;0.3676433121019108;0.40178343949044587;0.3889171974522293;1.0;0.47821656050955413;0.3913375796178344;0.28076433121019106;0.4394904458598726;0.33031847133757963;1.0;0.3769426751592357;0.28496815286624205;0.42089171974522294;0.30127388535031846;1.0;0.4597452229299363;0.37337579617834393;0.46878980891719746;1.0;0.2810191082802548;0.34802547770700637;1.0;0.37605095541401273;1.0
0;S18;Resting Open;1.0;0.21426751592356688;0.20662420382165606;0.19337579617834394;0.22394904458598727;0.21579617834394904;0.16853503184713375;0.17439490445859873;1.0;0.7230573248407643;0.5554140127388535;0.6415286624203822;0.5085350318471338;0.5528662420382165;0.4628025477707006;1.0;0.6947770700636943;0.5712101910828026;0.4405095541401274;0.5918471337579618;0.39528662420382166;1.0;0.4419108280254777;0.3484076433121019;0.5447133757961783;0.3050955414012739;1.0;0.6626751592356688;0.4546496815286624;0.5210191082802548;1.0;0.3607643312101911;0.5277707006369426;1.0;0.42738853503184715;1.0
0;S20;Resting Open;1.0;0.1373248407643312;0.12764331210191082;0.13477707006369427;0.15082802547770702;0.19019108280254776;0.1394904458598726;0.1310828025477707;1.0;0.6122292993630574;0.47579617834394905;0.5951592356687898;0.48152866242038217;0.4973248407643312;0.5203821656050955;1.0;0.6033121019108281;0.4946496815286624;0.3870063694267516;0.6049681528662421;0.43719745222929934;1.0;0.4170700636942675;0.35579617834394905;0.5064968152866242;0.3686624203821656;1.0;0.6140127388535032;0.41350318471337577;0.5039490445859872;1.0;0.343312101910828;0.476687898089172;1.0;0.4624203821656051;1.0
0;S21;Resting Open;1.0;0.1394904458598726;0.1219108280254777;0.11694267515923566;0.1580891719745223;0.16789808917197452;0.11019108280254777;0.1264968152866242;1.0;0.5670063694267516;0.4845859872611465;0.5828025477707006;0.41464968152866244;0.47426751592356686;0.4718471337579618;1.0;0.5820382165605096;0.42662420382165606;0.3048407643312102;0.44484076433121017;0.3588535031847134;1.0;0.3626751592356688;0.26853503184713373;0.4287898089171975;0.3156687898089172;1.0;0.5294267515923566;0.3850955414012739;0.5197452229299363;1.0;0.2954140127388535;0.43337579617834393;1.0;0.43630573248407645;1.0
0;S22;Resting Open;1.0;0.22777070063694269;0.22751592356687897;0.22904458598726116;0.23477707006369428;0.24216560509554141;0.1894267515923567;0.2005095541401274;1.0;0.6410191082802548;0.5737579617834395;0.644203821656051;0.5021656050955414;0.5340127388535032;0.5304458598726115;1.0;0.6527388535031847;0.5768152866242038;0.4559235668789809;0.5244585987261147;0.47923566878980894;1.0;0.5161783439490446;0.4276433121019108;0.4914649681528662;0.424968152866242;1.0;0.6077707006369427;0.5118471337579618;0.6068789808917198;1.0;0.4434394904458599;0.5500636942675159;1.0;0.5448407643312102;1.0
0;S23;Resting Open;1.0;0.14420382165605095;0.14853503184713376;0.1435668789808917;0.13579617834394905;0.15643312101910828;0.1349044585987261;0.13261146496815288;1.0;0.6336305732484077;0.5022929936305732;0.6245859872611464;0.5138853503184714;0.48585987261146496;0.518343949044586;1.0;0.6473885350318471;0.48547770700636944;0.4101910828025478;0.5363057324840764;0.43936305732484077;1.0;0.37171974522292994;0.32687898089171974;0.5078980891719745;0.3498089171974522;1.0;0.6252229299363057;0.3857324840764331;0.533375796178344;1.0;0.3389808917197452;0.5346496815286624;1.0;0.45490445859872614;1.0
0;S24;Resting Open;1.0;0.1494267515923567;0.13656050955414012;0.11859872611464968;0.1375796178343949;0.1259872611464968;0.09210191082802548;0.09847133757961783;1.0;0.5715923566878981;0.41197452229299364;0.6332484076433121;0.43936305732484077;0.4337579617834395;0.48509554140127387;1.0;0.5092993630573248;0.4214012738853503;0.2961783439490446;0.4438216560509554;0.33070063694267515;1.0;0.3089171974522293;0.23554140127388534;0.37095541401273885;0.23770700636942677;1.0;0.6206369426751592;0.3359235668789809;0.5500636942675159;1.0;0.24955414012738852;0.490828025477707;1.0;0.37210191082802546;1.0
0;S26;Resting Open;1.0;0.0889171974522293;0.0937579617834395;0.0932484076433121;0.08292993630573249;0.07668789808917198;0.10140127388535032;0.09745222929936306;1.0;0.4121019108280255;0.3070063694267516;0.35859872611464966;0.18968152866242038;0.3484076433121019;0.32178343949044586;1.0;0.5184713375796178;0.3310828025477707;0.18713375796178344;0.5054777070063694;0.31643312101910825;1.0;0.23732484076433122;0.14980891719745223;0.38789808917197455;0.23426751592356687;1.0;0.2747770700636943;0.2863694267515924;0.42662420382165606;1.0;0.16356687898089173;0.25019108280254776;1.0;0.3207643312101911;1.0
0;S27;Resting Open;1.0;0.08382165605095541;0.08165605095541402;0.08471337579617834;0.08343949044585987;0.08738853503184714;0.07783439490445859;0.08012738853503185;1.0;0.5798726114649682;0.4570700636942675;0.47554140127388533;0.36560509554140125;0.29312101910828026;0.363312101910828;1.0;0.5887898089171975;0.4240764331210191;0.31821656050955416;0.3205095541401274;0.304203821656051;1.0;0.33312101910828024;0.25528662420382164;0.32140127388535034;0.26955414012738854;1.0;0.47146496815286626;0.23936305732484076;0.4170700636942675;1.0;0.19936305732484078;0.374140127388535;1.0;0.2531210191082803;1.0
0;S28;Resting Open;1.0;0.09350318471337579;0.09719745222929936;0.1043312101910828;0.0954140127388535;0.08331210191082802;0.1129936305732484;0.08968152866242038;1.0;0.3119745222929936;0.3361783439490446;0.2670063694267516;0.1843312101910828;0.3305732484076433;0.2262420382165605;1.0;0.4759235668789809;0.27528662420382166;0.16955414012738854;0.4322292993630573;0.21796178343949044;1.0;0.2780891719745223;0.17235668789808917;0.5112101910828025;0.22152866242038216;1.0;0.3221656050955414;0.28802547770700637;0.40076433121019106;1.0;0.18292993630573248;0.30853503184713377;1.0;0.26254777070063695;1.0
0;S29;Resting Open;1.0;0.08789808917197452;0.08840764331210191;0.0864968152866242;0.07796178343949045;0.08140127388535032;0.1243312101910828;0.10522292993630573;1.0;0.5014012738853503;0.3084076433121019;0.48114649681528665;0.2551592356687898;0.38789808917197455;0.44764331210191083;1.0;0.4067515923566879;0.35095541401273883;0.1994904458598726;0.4059872611464968;0.3250955414012739;1.0;0.22331210191082804;0.15987261146496815;0.298343949044586;0.19885350318471337;1.0;0.4305732484076433;0.25949044585987263;0.4768152866242038;1.0;0.15974522292993631;0.310828025477707;1.0;0.3723566878980892;1.0
0;S30;Resting Open;1.0;0.06687898089171974;0.07210191082802547;0.0686624203821656;0.05859872611464968;0.0643312101910828;0.0889171974522293;0.07681528662420382;1.0;0.6931210191082803;0.40063694267515926;0.3830573248407643;0.34254777070063697;0.48152866242038217;0.43044585987261147;1.0;0.5490445859872611;0.29146496815286627;0.2678980891719745;0.5175796178343949;0.34038216560509554;1.0;0.1859872611464968;0.20675159235668789;0.4171974522292994;0.22942675159235668;1.0;0.3448407643312102;0.229171974522293;0.3053503184713376;1.0;0.2546496815286624;0.5206369426751593;1.0;0.41617834394904457;1.0
0;S32;Resting Open;1.0;0.08662420382165605;0.07885350318471337;0.08089171974522293;0.08535031847133757;0.07732484076433122;0.09745222929936306;0.09668789808917197;1.0;0.6452229299363057;0.46662420382165604;0.597579617834395;0.37452229299363055;0.556687898089172;0.518343949044586;1.0;0.6045859872611465;0.4575796178343949;0.2898089171974522;0.6165605095541401;0.403312101910828;1.0;0.3417834394904459;0.22573248407643312;0.5085350318471338;0.3029299363057325;1.0;0.4652229299363057;0.3980891719745223;0.49872611464968153;1.0;0.2620382165605096;0.36980891719745224;1.0;0.47312101910828025;1.0
0;S33;Resting Open;1.0;0.06585987261146496;0.06292993630573249;0.06254777070063694;0.059490445859872614;0.06471337579617835;0.06789808917197453;0.0664968152866242;1.0;0.5703184713375796;0.3904458598726115;0.4156687898089172;0.25834394904458596;0.47541401273885353;0.40229299363057325;1.0;0.589171974522293;0.28114649681528664;0.18038216560509554;0.5793630573248407;0.2698089171974522;1.0;0.20369426751592357;0.1445859872611465;0.498343949044586;0.19006369426751593;1.0;0.41006369426751593;0.25719745222929935;0.5207643312101911;1.0;0.16789808917197452;0.38789808917197455;1.0;0.2945222929936306;1.0
0;S34;Resting Open;1.0;0.06777070063694267;0.06140127388535032;0.06929936305732484;0.0689171974522293;0.062038216560509556;0.08624203821656051;0.09490445859872612;1.0;0.550828025477707;0.37248407643312104;0.43388535031847136;0.2310828025477707;0.3919745222929936;0.27847133757961784;1.0;0.6072611464968153;0.2584713375796178;0.15719745222929937;0.40305732484076434;0.19745222929936307;1.0;0.19337579617834394;0.12573248407643312;0.39070063694267515;0.16101910828025479;1.0;0.49528662420382163;0.26063694267515924;0.36522292993630573;1.0;0.1614012738853503;0.29464968152866244;1.0;0.3328662420382166;1.0
0;S35;Resting Open;1.0;0.07656050955414012;0.08114649681528663;0.0775796178343949;0.07261146496815286;0.07095541401273886;0.09057324840764332;0.09898089171974522;1.0;0.5844585987261146;0.43006369426751595;0.5578343949044586;0.28815286624203823;0.49605095541401273;0.3149044585987261;1.0;0.5528662420382165;0.429171974522293;0.22101910828025478;0.4896815286624204;0.2785987261146497;1.0;0.29273885350318474;0.17312101910828026;0.42165605095541403;0.20751592356687898;1.0;0.42127388535031846;0.3768152866242038;0.35197452229299364;1.0;0.22356687898089173;0.26611464968152865;1.0;0.3537579617834395;1.0
0;S36;Resting Open;1.0;0.07554140127388535;0.07388535031847134;0.07299363057324841;0.07694267515923567;0.07171974522292994;0.10318471337579618;0.10764331210191083;1.0;0.5808917197452229;0.3602547770700637;0.5109554140127388;0.22560509554140126;0.41464968152866244;0.36751592356687895;1.0;0.46471337579617833;0.3518471337579618;0.19095541401273886;0.43579617834394907;0.30038216560509556;1.0;0.2542675159235669;0.16764331210191083;0.33312101910828024;0.2137579617834395;1.0;0.31477707006369426;0.2994904458598726;0.4008917197452229;1.0;0.17477707006369428;0.2329936305732484;1.0;0.41847133757961785;1.0
0;S37;Resting Open;1.0;0.09414012738853503;0.09707006369426752;0.11273885350318472;0.08598726114649681;0.07541401273885351;0.1094267515923567;0.09605095541401273;1.0;0.5494267515923567;0.34853503184713375;0.5231847133757962;0.24522292993630573;0.52;0.5085350318471338;1.0;0.5629299363057325;0.338343949044586;0.17949044585987262;0.7480254777070063;0.3494267515923567;1.0;0.2240764331210191;0.13070063694267517;0.5014012738853503;0.2286624203821656;1.0;0.4280254777070064;0.3277707006369427;0.6197452229299363;1.0;0.1718471337579618;0.3696815286624204;1.0;0.3775796178343949;1.0
0;S2;Resting;1.0;0.16089171974522293;0.16038216560509555;0.1464968152866242;0.18471337579617833;0.19592356687898088;0.14853503184713376;0.16522292993630575;1.0;0.9546496815286625;0.676687898089172;0.6705732484076433;0.5742675159235668;0.7650955414012739;0.5258598726114649;1.0;0.6887898089171974;0.6662420382165605;0.5698089171974522;0.7631847133757962;0.520891719745223;1.0;0.5110828025477707;0.44407643312101913;0.6298089171974522;0.40777070063694265;1.0;0.8070063694267516;0.6704458598726115;0.6996178343949044;1.0;0.5771974522292994;0.681656050955414;1.0;0.5812738853503184;1.0
0;S3;Resting;1.0;0.15630573248407642;0.12955414012738853;0.12547770700636943;0.14751592356687898;0.16318471337579618;0.11057324840764331;0.14191082802547772;1.0;0.5521019108280255;0.4515923566878981;0.584968152866242;0.36738853503184715;0.4690445859872611;0.524968152866242;1.0;0.49910828025477705;0.3759235668789809;0.2538853503184713;0.4445859872611465;0.34815286624203823;1.0;0.2922292993630573;0.21210191082802549;0.4014012738853503;0.28585987261146495;1.0;0.42203821656050955;0.35273885350318473;0.5580891719745223;1.0;0.22496815286624203;0.4078980891719745;1.0;0.3645859872611465;1.0
0;S5;Resting;1.0;0.11401273885350319;0.1315923566878981;0.1373248407643312;0.10751592356687899;0.11605095541401274;0.10101910828025477;0.08471337579617834;1.0;0.4439490445859873;0.25719745222929935;0.5256050955414012;0.36547770700636945;0.4797452229299363;0.3807643312101911;1.0;0.5164331210191083;0.26828025477707007;0.22828025477707006;0.5025477707006369;0.19579617834394905;1.0;0.16878980891719744;0.15070063694267516;0.37248407643312104;0.1335031847133758;1.0;0.5289171974522293;0.2987261146496815;0.4945222929936306;1.0;0.23171974522292993;0.3905732484076433;1.0;0.2761783439490446;1.0
0;S7;Resting;1.0;0.16127388535031847;0.14929936305732483;0.14267515923566879;0.1551592356687898;0.16254777070063695;0.12573248407643312;0.13719745222929935;1.0;0.6173248407643313;0.5839490445859873;0.5236942675159235;0.4318471337579618;0.5105732484076433;0.5131210191082802;1.0;0.6822929936305733;0.44904458598726116;0.35363057324840763;0.5467515923566879;0.40343949044585986;1.0;0.41337579617834397;0.32292993630573247;0.5238216560509554;0.3729936305732484;1.0;0.5298089171974523;0.39923566878980893;0.4794904458598726;1.0;0.32496815286624203;0.48585987261146496;1.0;0.41668789808917195;1.0
0;S10;Resting;1.0;0.1002547770700637;0.0980891719745223;0.1002547770700637;0.10777070063694268;0.1346496815286624;0.09006369426751593;0.0973248407643312;1.0;0.660891719745223;0.4856050955414013;0.5978343949044586;0.4014012738853503;0.6117197452229299;0.5565605095541402;1.0;0.7369426751592356;0.4206369426751592;0.3007643312101911;0.8352866242038216;0.38980891719745225;1.0;0.31745222929936306;0.24280254777070065;0.6975796178343949;0.29146496815286627;1.0;0.6486624203821656;0.38993630573248406;0.7546496815286624;1.0;0.27605095541401276;0.5405095541401274;1.0;0.3867515923566879;1.0
0;S11;Resting;1.0;0.15464968152866243;0.13210191082802547;0.12127388535031847;0.15503184713375795;0.15477707006369426;0.09006369426751593;0.1113375796178344;1.0;0.7078980891719745;0.4856050955414013;0.7969426751592357;0.5315923566878981;0.4252229299363057;0.5668789808917197;1.0;0.6644585987261147;0.578343949044586;0.3942675159235669;0.5672611464968152;0.45643312101910827;1.0;0.4028025477707006;0.2991082802547771;0.544203821656051;0.3264968152866242;1.0;0.6615286624203822;0.3738853503184713;0.6463694267515924;1.0;0.26993630573248406;0.5210191082802548;1.0;0.4117197452229299;1.0
0;S13;Resting;1.0;0.17694267515923567;0.152484076433121;0.15414012738853503;0.17070063694267515;0.1578343949044586;0.13184713375796178;0.15579617834394904;1.0;0.6173248407643313;0.4802547770700637;0.5970700636942675;0.42815286624203824;0.4659872611464968;0.5327388535031847;1.0;0.6507006369426752;0.438343949044586;0.32789808917197455;0.5354140127388535;0.41503184713375796;1.0;0.3580891719745223;0.28420382165605096;0.5211464968152866;0.34254777070063697;1.0;0.6212738853503185;0.3826751592356688;0.714140127388535;1.0;0.31363057324840765;0.629936305732484;1.0;0.4295541401273885;1.0
0;S14;Resting;1.0;0.1505732484076433;0.14471337579617835;0.12076433121019109;0.17987261146496816;0.18178343949044587;0.11464968152866242;0.13515923566878982;1.0;0.5171974522292994;0.32420382165605094;0.5777070063694267;0.43312101910828027;0.45363057324840766;0.5061146496815286;1.0;0.510063694267516;0.43872611464968153;0.33261146496815286;0.5182165605095541;0.369171974522293;1.0;0.276687898089172;0.22509554140127389;0.3380891719745223;0.23464968152866242;1.0;0.5484076433121019;0.36662420382165606;0.5352866242038217;1.0;0.2701910828025478;0.45261146496815285;1.0;0.3932484076433121;1.0
0;S15;Resting;1.0;0.13121019108280255;0.1354140127388535;0.14114649681528663;0.1296815286624204;0.12343949044585988;0.09643312101910828;0.08318471337579618;1.0;0.6664968152866242;0.4856050955414013;0.6164331210191083;0.3643312101910828;0.4770700636942675;0.3680254777070064;1.0;0.6923566878980891;0.4118471337579618;0.2597452229299363;0.48203821656050955;0.2605095541401274;1.0;0.3076433121019108;0.2105732484076433;0.4323566878980892;0.20522292993630573;1.0;0.5784713375796179;0.3436942675159236;0.44993630573248405;1.0;0.22178343949044585;0.3611464968152866;1.0;0.3722292993630573;1.0
0;S16;Resting;1.0;0.11770700636942676;0.11414012738853503;0.11987261146496815;0.1315923566878981;0.14127388535031848;0.09757961783439491;0.10585987261146497;1.0;0.6029299363057324;0.523312101910828;0.6050955414012739;0.4496815286624204;0.5122292993630573;0.498343949044586;1.0;0.6147770700636943;0.5160509554140127;0.4024203821656051;0.5002547770700637;0.4089171974522293;1.0;0.46573248407643314;0.3896815286624204;0.46968152866242036;0.3374522292993631;1.0;0.6062420382165605;0.4464968152866242;0.5571974522292994;1.0;0.33770700636942674;0.4354140127388535;1.0;0.46178343949044587;1.0
0;S18;Resting;1.0;0.15974522292993631;0.15286624203821655;0.1354140127388535;0.1778343949044586;0.18229299363057325;0.12394904458598727;0.13388535031847135;1.0;0.6668789808917197;0.47426751592356686;0.5430573248407643;0.36904458598726114;0.4968152866242038;0.37707006369426754;1.0;0.642420382165605;0.42203821656050955;0.28738853503184714;0.5289171974522293;0.2882802547770701;1.0;0.3135031847133758;0.22662420382165605;0.4561783439490446;0.21477707006369426;1.0;0.575031847133758;0.34394904458598724;0.45414012738853504;1.0;0.24331210191082803;0.4454777070063694;1.0;0.3184713375796178;1.0
0;S20;Resting;1.0;0.15439490445859871;0.13579617834394905;0.13796178343949045;0.18713375796178344;0.2072611464968153;0.11312101910828025;0.1378343949044586;1.0;0.48585987261146496;0.3838216560509554;0.49286624203821655;0.3545222929936306;0.3680254777070064;0.47770700636942676;1.0;0.5411464968152866;0.41617834394904457;0.2814012738853503;0.5628025477707006;0.4322292993630573;1.0;0.3807643312101911;0.2831847133757962;0.4709554140127388;0.3444585987261147;1.0;0.6357961783439491;0.3212738853503185;0.495031847133758;1.0;0.22;0.3540127388535032;1.0;0.44254777070063694;1.0
0;S21;Resting;1.0;0.10636942675159236;0.10420382165605095;0.09987261146496815;0.11388535031847134;0.12560509554140128;0.08547770700636943;0.08866242038216561;1.0;0.5574522292993631;0.43286624203821655;0.5461146496815287;0.3680254777070064;0.41770700636942676;0.43044585987261147;1.0;0.5987261146496815;0.36904458598726114;0.2593630573248408;0.42012738853503184;0.30942675159235666;1.0;0.2774522292993631;0.20420382165605094;0.35630573248407643;0.23197452229299362;1.0;0.5257324840764331;0.32012738853503186;0.4946496815286624;1.0;0.229171974522293;0.3873885350318471;1.0;0.38369426751592356;1.0
0;S22;Resting;1.0;0.2793630573248408;0.2670063694267516;0.27426751592356685;0.2756687898089172;0.27044585987261144;0.19668789808917198;0.19414012738853503;1.0;0.729171974522293;0.6185987261146497;0.7189808917197452;0.510063694267516;0.5406369426751593;0.5171974522292994;1.0;0.6996178343949044;0.5825477707006369;0.42165605095541403;0.5312101910828025;0.4385987261146497;1.0;0.5050955414012739;0.38496815286624203;0.49337579617834393;0.36751592356687895;1.0;0.610828025477707;0.4667515923566879;0.5454777070063694;1.0;0.33961783439490445;0.4230573248407643;1.0;0.5286624203821656;1.0
0;S23;Resting;1.0;0.1759235668789809;0.20127388535031848;0.21987261146496814;0.17796178343949046;0.20280254777070064;0.13121019108280255;0.11452229299363058;1.0;0.7098089171974522;0.5193630573248408;0.7228025477707006;0.5835668789808918;0.5540127388535032;0.49095541401273884;1.0;0.7;0.5621656050955414;0.47235668789808916;0.5073885350318471;0.3573248407643312;1.0;0.4252229299363057;0.38980891719745225;0.40802547770700637;0.2626751592356688;1.0;0.7114649681528662;0.44802547770700635;0.5014012738853503;1.0;0.36828025477707005;0.4565605095541401;1.0;0.5098089171974522;1.0
0;S24;Resting;1.0;0.15095541401273885;0.1424203821656051;0.11554140127388535;0.15605095541401273;0.15490445859872612;0.0954140127388535;0.10484076433121019;1.0;0.5438216560509554;0.2643312101910828;0.649171974522293;0.4749044585987261;0.39796178343949046;0.5042038216560509;1.0;0.48165605095541403;0.3370700636942675;0.2584713375796178;0.51171974522293;0.2735031847133758;1.0;0.17414012738853504;0.1472611464968153;0.3129936305732484;0.14152866242038217;1.0;0.7229299363057324;0.25987261146496815;0.6193630573248408;1.0;0.19923566878980892;0.5182165605095541;1.0;0.26063694267515924;1.0
0;S26;Resting;1.0;0.07006369426751592;0.07006369426751592;0.06598726114649682;0.06942675159235669;0.06025477707006369;0.07605095541401274;0.07019108280254777;1.0;0.38611464968152864;0.2523566878980892;0.3243312101910828;0.17044585987261146;0.30547770700636945;0.2992356687898089;1.0;0.5415286624203821;0.22140127388535033;0.12445859872611464;0.5578343949044586;0.21286624203821655;1.0;0.14815286624203822;0.09617834394904459;0.429171974522293;0.13987261146496816;1.0;0.33694267515923565;0.18331210191082803;0.49796178343949044;1.0;0.10929936305732484;0.27579617834394904;1.0;0.20076433121019108;1.0
0;S27;Resting;1.0;0.10292993630573248;0.10764331210191083;0.10955414012738854;0.12356687898089172;0.12063694267515923;0.09694267515923567;0.10178343949044585;1.0;0.5107006369426752;0.39184713375796176;0.43605095541401273;0.28191082802547773;0.3238216560509554;0.29312101910828026;1.0;0.5664968152866242;0.3619108280254777;0.23197452229299362;0.39031847133757963;0.24407643312101912;1.0;0.2824203821656051;0.18980891719745224;0.401656050955414;0.19910828025477706;1.0;0.48496815286624206;0.23898089171974524;0.37579617834394907;1.0;0.1624203821656051;0.29770700636942676;1.0;0.23668789808917198;1.0
0;S28;Resting;1.0;0.09171974522292993;0.08624203821656051;0.0980891719745223;0.0929936305732484;0.08980891719745222;0.08980891719745222;0.09031847133757961;1.0;0.42777070063694267;0.3412738853503185;0.32636942675159236;0.17070063694267515;0.39146496815286624;0.29477707006369425;1.0;0.509171974522293;0.2831847133757962;0.15643312101910828;0.5059872611464968;0.23388535031847132;1.0;0.2354140127388535;0.13872611464968154;0.4426751592356688;0.18955414012738853;1.0;0.36560509554140125;0.26343949044585985;0.547515923566879;1.0;0.14560509554140127;0.3239490445859873;1.0;0.2522292993630573;1.0
0;S29;Resting;1.0;0.11401273885350319;0.11566878980891719;0.11656050955414013;0.11222929936305732;0.11668789808917197;0.13796178343949045;0.10993630573248407;1.0;0.5728662420382166;0.33312101910828024;0.5424203821656051;0.281656050955414;0.42280254777070064;0.48904458598726114;1.0;0.5194904458598726;0.35987261146496813;0.21898089171974522;0.5040764331210191;0.3335031847133758;1.0;0.2327388535031847;0.17133757961783438;0.3695541401273885;0.20713375796178343;1.0;0.4899363057324841;0.25057324840764333;0.5231847133757962;1.0;0.16178343949044585;0.3240764331210191;1.0;0.33847133757961784;1.0
0;S30;Resting;1.0;0.0689171974522293;0.06560509554140127;0.06089171974522293;0.06267515923566878;0.07464968152866241;0.09121019108280255;0.08420382165605096;1.0;0.7124840764331211;0.38522292993630575;0.4287898089171975;0.3110828025477707;0.5504458598726115;0.45286624203821657;1.0;0.54;0.32178343949044586;0.23770700636942677;0.5887898089171975;0.3435668789808917;1.0;0.20445859872611466;0.16853503184713375;0.40878980891719746;0.20738853503184712;1.0;0.3997452229299363;0.2639490445859873;0.4064968152866242;1.0;0.21388535031847133;0.4834394904458599;1.0;0.3854777070063694;1.0
0;S32;Resting;1.0;0.06229299363057325;0.06420382165605096;0.06738853503184714;0.06547770700636943;0.06942675159235669;0.06980891719745223;0.07401273885350318;1.0;0.6565605095541401;0.4071337579617834;0.616687898089172;0.4253503184713376;0.5412738853503185;0.4819108280254777;1.0;0.6080254777070063;0.4276433121019108;0.29694267515923567;0.617452229299363;0.3444585987261147;1.0;0.29656050955414015;0.22382165605095541;0.45605095541401275;0.22764331210191083;1.0;0.609171974522293;0.36089171974522294;0.5094267515923567;1.0;0.27031847133757964;0.44980891719745225;1.0;0.40968152866242036;1.0
0;S33;Resting;1.0;0.05974522292993631;0.05885350318471338;0.06458598726114649;0.07006369426751592;0.07770700636942675;0.0686624203821656;0.06815286624203822;1.0;0.5005095541401274;0.24955414012738852;0.3482802547770701;0.1305732484076433;0.39388535031847133;0.2859872611464968;1.0;0.5094267515923567;0.1838216560509554;0.09592356687898089;0.47146496815286626;0.14573248407643313;1.0;0.10726114649681529;0.08114649681528663;0.33605095541401275;0.09197452229299363;1.0;0.278343949044586;0.16611464968152867;0.5259872611464969;1.0;0.08917197452229299;0.23286624203821657;1.0;0.17987261146496816;1.0
0;S34;Resting;1.0;0.07656050955414012;0.06878980891719745;0.06687898089171974;0.07605095541401274;0.06751592356687898;0.08394904458598726;0.11605095541401274;1.0;0.5856050955414013;0.38101910828025476;0.4914649681528662;0.25681528662420383;0.48280254777070064;0.304203821656051;1.0;0.6169426751592356;0.304203821656051;0.1775796178343949;0.46343949044585986;0.21082802547770702;1.0;0.22305732484076432;0.15044585987261147;0.36012738853503184;0.1503184713375796;1.0;0.5461146496815287;0.3245859872611465;0.4062420382165605;1.0;0.18445859872611464;0.2979617834394904;1.0;0.352484076433121;1.0
0;S35;Resting;1.0;0.0867515923566879;0.08114649681528663;0.08076433121019108;0.07643312101910828;0.061656050955414016;0.09197452229299363;0.10165605095541401;1.0;0.558343949044586;0.4681528662420382;0.5487898089171974;0.2797452229299363;0.4635668789808917;0.2886624203821656;1.0;0.5515923566878981;0.41006369426751593;0.22101910828025478;0.48114649681528665;0.2584713375796178;1.0;0.3248407643312102;0.16853503184713375;0.4335031847133758;0.1935031847133758;1.0;0.42815286624203824;0.3436942675159236;0.3273885350318471;1.0;0.20063694267515925;0.2570700636942675;1.0;0.31872611464968154;1.0
0;S36;Resting;1.0;0.09910828025477707;0.09770700636942675;0.09630573248407644;0.0954140127388535;0.09401273885350318;0.10114649681528662;0.08751592356687898;1.0;0.5687898089171974;0.3149044585987261;0.48738853503184715;0.25681528662420383;0.47273885350318473;0.3561783439490446;1.0;0.5408917197452229;0.3081528662420382;0.18063694267515923;0.5676433121019109;0.2385987261146497;1.0;0.18713375796178344;0.12522292993630574;0.37057324840764333;0.1443312101910828;1.0;0.4821656050955414;0.2732484076433121;0.5305732484076433;1.0;0.16636942675159236;0.38471337579617837;1.0;0.3007643312101911;1.0
0;S37;Resting;1.0;0.06;0.06178343949044586;0.06229299363057325;0.049681528662420385;0.0556687898089172;0.069171974522293;0.05847133757961783;1.0;0.41286624203821654;0.19592356687898088;0.46343949044585986;0.1335031847133758;0.4;0.41095541401273883;1.0;0.4662420382165605;0.22063694267515924;0.11363057324840764;0.7662420382165606;0.2262420382165605;1.0;0.13019108280254776;0.09414012738853503;0.434140127388535;0.13503184713375796;1.0;0.28496815286624205;0.21605095541401273;0.6128662420382166;1.0;0.11414012738853503;0.2575796178343949;1.0;0.25057324840764333;1.0
0;S2;Square;1.0;0.17173913043478262;0.17058823529411765;0.16163682864450127;0.1567774936061381;0.20319693094629157;0.15294117647058825;0.15626598465473146;1.0;0.9419437340153453;0.7254475703324809;0.4964194373401535;0.5508951406649616;0.6566496163682864;0.4540920716112532;1.0;0.7308184143222506;0.4924552429667519;0.5438618925831202;0.6548593350383631;0.4448849104859335;1.0;0.44859335038363174;0.4832480818414322;0.6014066496163682;0.3906649616368286;1.0;0.5384910485933504;0.479156010230179;0.47058823529411764;1.0;0.5143222506393862;0.5603580562659847;1.0;0.44820971867007675;1.0
0;S3;Square;1.0;0.1510230179028133;0.1350383631713555;0.11867007672634271;0.1479539641943734;0.1649616368286445;0.11317135549872123;0.11854219948849105;1.0;0.6601023017902813;0.5355498721227622;0.6634271099744246;0.518925831202046;0.5384910485933504;0.5751918158567775;1.0;0.6437340153452685;0.5103580562659846;0.39373401534526853;0.5471867007672634;0.44782608695652176;1.0;0.4184143222506394;0.3373401534526854;0.4900255754475703;0.3615089514066496;1.0;0.6234015345268542;0.46636828644501277;0.6517902813299232;1.0;0.369693094629156;0.5626598465473146;1.0;0.4927109974424552;1.0
0;S5;Square;1.0;0.1483375959079284;0.14373401534526853;0.15421994884910487;0.1530690537084399;0.16675191815856777;0.12928388746803068;0.13260869565217392;1.0;0.5181585677749361;0.4121483375959079;0.4964194373401535;0.3731457800511509;0.5042199488491048;0.38554987212276215;1.0;0.5236572890025576;0.37455242966751917;0.30792838874680306;0.4997442455242967;0.3130434782608696;1.0;0.2962915601023018;0.2640664961636829;0.44207161125319694;0.2565217391304348;1.0;0.47033248081841433;0.37864450127877236;0.429923273657289;1.0;0.3078005115089514;0.3842710997442455;1.0;0.3489769820971867;1.0
0;S7;Square;1.0;0.17148337595907928;0.16163682864450127;0.16457800511508952;0.20051150895140665;0.20639386189258313;0.14398976982097186;0.17659846547314578;1.0;0.639002557544757;0.5561381074168797;0.6379795396419438;0.4749360613810742;0.5590792838874681;0.6051150895140665;1.0;0.6437340153452685;0.510230179028133;0.3776214833759591;0.5850383631713555;0.49539641943734014;1.0;0.44987212276214833;0.3407928388746803;0.5677749360613811;0.4462915601023018;1.0;0.6086956521739131;0.4827365728900256;0.6464194373401535;1.0;0.3680306905370844;0.5812020460358056;1.0;0.529156010230179;1.0
0;S10;Square;1.0;0.12762148337595908;0.12033248081841433;0.12186700767263427;0.14181585677749362;0.1421994884910486;0.1092071611253197;0.12365728900255754;1.0;0.6964194373401534;0.5625319693094629;0.6680306905370844;0.41854219948849103;0.569693094629156;0.592071611253197;1.0;0.7126598465473146;0.5175191815856778;0.3317135549872123;0.6358056265984655;0.46278772378516625;1.0;0.42672634271099746;0.2780051150895141;0.5896419437340154;0.3730179028132992;1.0;0.5351662404092071;0.45294117647058824;0.6837595907928389;1.0;0.30358056265984656;0.4819693094629156;1.0;0.44437340153452687;1.0
0;S11;Square;1.0;0.16675191815856777;0.15805626598465472;0.160230179028133;0.1618925831202046;0.1864450127877238;0.1336317135549872;0.15115089514066496;1.0;0.620843989769821;0.5340153452685422;0.5673913043478261;0.4722506393861893;0.538235294117647;0.521994884910486;1.0;0.6361892583120204;0.4;0.34782608695652173;0.5498721227621484;0.4052429667519182;1.0;0.35703324808184145;0.3136828644501279;0.5388746803069053;0.35792838874680305;1.0;0.5675191815856777;0.3867007672634271;0.5356777493606139;1.0;0.33222506393861895;0.49808184143222506;1.0;0.43145780051150895;1.0
0;S13;Square;1.0;0.1768164636707266;0.1747165056698866;0.1774464510709786;0.19067618647627047;0.1990760184796304;0.18416631667366654;0.19445611087778245;1.0;0.5724485510289794;0.4481310373792524;0.6390172196556069;0.49433011339773203;0.504829903401932;0.5445191096178077;1.0;0.6606467870642587;0.4491810163796724;0.35720285594288115;0.6014279714405711;0.42020159596808065;1.0;0.3588828223435531;0.3131037379252415;0.5627887442251155;0.34523309533809327;1.0;0.6430071398572028;0.4502309953800924;0.6730365392692146;1.0;0.40340193196136076;0.6602267954640907;1.0;0.49895002099958;1.0
0;S14;Square;1.0;0.13682864450127877;0.12493606138107417;0.12071611253196932;0.12813299232736572;0.14207161125319692;0.13248081841432224;0.1534526854219949;1.0;0.45907928388746805;0.3095907928388747;0.39258312020460356;0.3530690537084399;0.41675191815856777;0.4081841432225064;1.0;0.43350383631713557;0.3337595907928389;0.289002557544757;0.4542199488491049;0.3340153452685422;1.0;0.23836317135549873;0.22838874680306906;0.3176470588235294;0.24987212276214835;1.0;0.38171355498721227;0.3285166240409207;0.38312020460358054;1.0;0.28005115089514065;0.3946291560102302;1.0;0.3760869565217391;1.0
0;S15;Square;1.0;0.14104859335038364;0.1289002557544757;0.13043478260869565;0.15562659846547314;0.17097186700767264;0.10332480818414322;0.11329923273657289;1.0;0.6034526854219949;0.47634271099744246;0.670843989769821;0.419693094629156;0.5868286445012788;0.5139386189258311;1.0;0.5640664961636829;0.4309462915601023;0.28631713554987215;0.5546035805626598;0.3581841432225064;1.0;0.3411764705882353;0.24028132992327367;0.4900255754475703;0.2684143222506394;1.0;0.6103580562659846;0.4359335038363171;0.5736572890025575;1.0;0.2860613810741688;0.4542199488491049;1.0;0.4607416879795396;1.0
0;S16;Square;1.0;0.13222506393861894;0.1428388746803069;0.14335038363171357;0.1512787723785166;0.15038363171355498;0.1221227621483376;0.13184143222506395;1.0;0.5900255754475703;0.5099744245524297;0.5686700767263427;0.41317135549872125;0.5083120204603581;0.520076726342711;1.0;0.5909207161125319;0.5078005115089514;0.37736572890025577;0.5232736572890025;0.4434782608695652;1.0;0.44194373401534526;0.330690537084399;0.4932225063938619;0.38618925831202044;1.0;0.5182864450127878;0.4248081841432225;0.5347826086956522;1.0;0.3305626598465473;0.4237851662404092;1.0;0.430306905370844;1.0
0;S18;Square;1.0;0.20127877237851663;0.18478260869565216;0.16930946291560103;0.2159846547314578;0.230690537084399;0.14923273657289002;0.1725063938618926;1.0;0.6909207161125319;0.530306905370844;0.6306905370843989;0.43861892583120204;0.509846547314578;0.44539641943734015;1.0;0.6639386189258312;0.5443734015345268;0.36419437340153454;0.5626598465473146;0.3730179028132992;1.0;0.4154731457800512;0.288618925831202;0.5149616368286445;0.2951406649616368;1.0;0.6450127877237851;0.42071611253196933;0.5588235294117647;1.0;0.2918158567774936;0.5350383631713554;1.0;0.3840153452685422;1.0
0;S20;Square;1.0;0.14948849104859335;0.14347826086956522;0.12634271099744246;0.16854219948849106;0.17506393861892583;0.13554987212276215;0.1438618925831202;1.0;0.6358056265984655;0.4904092071611253;0.6173913043478261;0.44066496163682867;0.5241687979539642;0.5531969309462915;1.0;0.6020460358056265;0.5341432225063939;0.379923273657289;0.581457800511509;0.4864450127877238;1.0;0.42800511508951405;0.3145780051150895;0.4859335038363171;0.37084398976982097;1.0;0.5680306905370844;0.43452685421994885;0.5129156010230179;1.0;0.3067774936061381;0.40294117647058825;1.0;0.49156010230179026;1.0
0;S21;Square;1.0;0.13350383631713555;0.13132992327365728;0.12109974424552429;0.14296675191815858;0.16253196930946293;0.1129156010230179;0.1231457800511509;1.0;0.6227621483375959;0.5168797953964195;0.5785166240409207;0.47033248081841433;0.4884910485933504;0.45255754475703325;1.0;0.6360613810741688;0.4470588235294118;0.3804347826086957;0.48312020460358057;0.37864450127877236;1.0;0.37915601023017903;0.31572890025575445;0.4322250639386189;0.309462915601023;1.0;0.5966751918158568;0.4074168797953964;0.4900255754475703;1.0;0.3664961636828645;0.47774936061381074;1.0;0.4411764705882353;1.0
0;S22;Square;1.0;0.24040920716112532;0.23184143222506393;0.23171355498721227;0.24475703324808185;0.2629156010230179;0.20140664961636828;0.19961636828644502;1.0;0.7006393861892584;0.6086956521739131;0.6987212276214834;0.5585677749360614;0.5838874680306906;0.5773657289002557;1.0;0.681074168797954;0.6166240409207161;0.48734015345268544;0.5797953964194373;0.5125319693094629;1.0;0.5398976982097187;0.4428388746803069;0.5319693094629157;0.43823529411764706;1.0;0.6565217391304348;0.5528132992327366;0.6296675191815857;1.0;0.45907928388746805;0.560230179028133;1.0;0.5773657289002557;1.0
0;S23;Square;1.0;0.14948849104859335;0.1489769820971867;0.13810741687979539;0.15012787723785168;0.16457800511508952;0.12289002557544756;0.12749360613810742;1.0;0.647314578005115;0.5248081841432225;0.6547314578005116;0.5263427109974425;0.5524296675191815;0.5438618925831202;1.0;0.6491048593350384;0.49194373401534525;0.3959079283887468;0.5526854219948849;0.4153452685421995;1.0;0.3982097186700767;0.3333759590792839;0.5070332480818415;0.349616368286445;1.0;0.6445012787723785;0.440920716112532;0.5567774936061382;1.0;0.37595907928388744;0.5534526854219949;1.0;0.4962915601023018;1.0
0;S24;Square;1.0;0.13682864450127877;0.13260869565217392;0.11828644501278772;0.13695652173913042;0.12544757033248083;0.11419437340153453;0.10127877237851662;1.0;0.5402813299232737;0.3520460358056266;0.6469309462915601;0.4622762148337596;0.43158567774936063;0.4961636828644501;1.0;0.5003836317135549;0.39578005115089515;0.2879795396419437;0.4657289002557545;0.30843989769820973;1.0;0.2680306905370844;0.2078005115089514;0.3710997442455243;0.20843989769820973;1.0;0.6237851662404093;0.3141943734015345;0.5476982097186701;1.0;0.23925831202046036;0.480306905370844;1.0;0.3451406649616368;1.0
0;S26;Square;1.0;0.08375959079283887;0.08375959079283887;0.09015345268542199;0.07391304347826087;0.06764705882352941;0.08785166240409208;0.0789002557544757;1.0;0.49578005115089513;0.36790281329923274;0.40767263427109973;0.21854219948849105;0.3878516624040921;0.3934782608695652;1.0;0.5411764705882353;0.3900255754475703;0.20664961636828644;0.48350383631713556;0.38964194373401534;1.0;0.2849104859335038;0.17698209718670077;0.37506393861892584;0.26956521739130435;1.0;0.3028132992327366;0.3010230179028133;0.5017902813299233;1.0;0.19680306905370845;0.2852941176470588;1.0;0.3558823529411765;1.0
0;S27;Square;1.0;0.07647058823529412;0.07621483375959079;0.08273657289002558;0.07058823529411765;0.07953964194373402;0.08145780051150896;0.08081841432225063;1.0;0.4881074168797954;0.4124040920716113;0.4286445012787724;0.3265984654731458;0.2616368286445013;0.28631713554987215;1.0;0.5273657289002558;0.39373401534526853;0.2820971867007673;0.27429667519181583;0.2607416879795396;1.0;0.3129156010230179;0.23171355498721227;0.29335038363171356;0.22506393861892582;1.0;0.40153452685422;0.23375959079283887;0.32161125319693096;1.0;0.17225063938618926;0.2535805626598465;1.0;0.24974424552429667;1.0
0;S28;Square;1.0;0.07225063938618925;0.08670076726342711;0.0870843989769821;0.08120204603580562;0.07493606138107417;0.09462915601023018;0.08465473145780052;1.0;0.29744245524296675;0.27429667519181583;0.3125319693094629;0.22506393861892582;0.3445012787723785;0.3163682864450128;1.0;0.440153452685422;0.25805626598465475;0.1864450127877238;0.4024296675191816;0.2528132992327366;1.0;0.23209718670076726;0.17161125319693094;0.4170076726342711;0.2231457800511509;1.0;0.36163682864450125;0.30358056265984656;0.3928388746803069;1.0;0.22455242966751918;0.32941176470588235;1.0;0.31483375959079285;1.0
0;S29;Square;1.0;0.06074168797953964;0.0670076726342711;0.06317135549872123;0.06624040920716112;0.06035805626598466;0.09501278772378517;0.07864450127877237;1.0;0.440537084398977;0.3273657289002558;0.4343989769820972;0.28785166240409205;0.36010230179028135;0.3869565217391304;1.0;0.40601023017902815;0.36508951406649615;0.24245524296675192;0.39245524296675194;0.3411764705882353;1.0;0.2812020460358056;0.19808184143222507;0.330306905370844;0.25421994884910487;1.0;0.3659846547314578;0.3020460358056266;0.45;1.0;0.21202046035805627;0.3262148337595908;1.0;0.39373401534526853;1.0
0;S30;Square;1.0;0.058951406649616366;0.06253196930946292;0.06406649616368286;0.05434782608695652;0.06278772378516624;0.07595907928388747;0.06777493606138107;1.0;0.6641943734015345;0.39475703324808187;0.4966751918158568;0.30140664961636826;0.4445012787723785;0.4129156010230179;1.0;0.5502557544757033;0.38209718670076726;0.249616368286445;0.5066496163682864;0.3346547314578005;1.0;0.24028132992327367;0.1891304347826087;0.4796675191815857;0.23554987212276216;1.0;0.4051150895140665;0.27289002557544756;0.4230179028132992;1.0;0.22135549872122762;0.5099744245524297;1.0;0.34923273657289;1.0
0;S32;Square;1.0;0.07595907928388747;0.07710997442455243;0.08312020460358056;0.0721227621483376;0.0758312020460358;0.09028132992327366;0.08427109974424553;1.0;0.670076726342711;0.4750639386189258;0.6368286445012787;0.42787723785166243;0.540537084398977;0.49884910485933504;1.0;0.6104859335038363;0.5075447570332481;0.33951406649616367;0.6038363171355499;0.42327365728900257;1.0;0.38081841432225066;0.2653452685421995;0.490537084398977;0.3099744245524297;1.0;0.5294117647058824;0.409846547314578;0.48721227621483376;1.0;0.2962915601023018;0.4122762148337596;1.0;0.49501278772378515;1.0
0;S33;Square;1.0;0.056265984654731455;0.05792838874680307;0.056138107416879794;0.05537084398976982;0.056138107416879794;0.06048593350383632;0.06010230179028133;1.0;0.5856777493606138;0.41010230179028134;0.47774936061381074;0.2813299232736573;0.45268542199488493;0.4118925831202046;1.0;0.6152173913043478;0.3272378516624041;0.21547314578005114;0.5588235294117647;0.30805626598465474;1.0;0.22365728900255755;0.16508951406649616;0.48350383631713556;0.21892583120204603;1.0;0.3978260869565217;0.27915601023017905;0.5166240409207161;1.0;0.1833759590792839;0.37084398976982097;1.0;0.3237851662404092;1.0
0;S34;Square;1.0;0.08695652173913043;0.08861892583120205;0.08043478260869565;0.0792838874680307;0.07915601023017903;0.09961636828644502;0.11099744245524297;1.0;0.5613810741687979;0.3915601023017903;0.48017902813299235;0.220076726342711;0.45869565217391306;0.3809462915601023;1.0;0.5938618925831202;0.2961636828644501;0.14578005115089515;0.5320971867007672;0.25421994884910487;1.0;0.2115089514066496;0.12352941176470589;0.4884910485933504;0.19884910485933505;1.0;0.44194373401534526;0.2822250639386189;0.46368286445012785;1.0;0.14680306905370843;0.29398976982097186;1.0;0.31918158567774935;1.0
0;S35;Square;1.0;0.07685421994884911;0.07915601023017903;0.08337595907928388;0.07404092071611253;0.08043478260869565;0.09884910485933504;0.1251918158567775;1.0;0.5184143222506394;0.41445012787723784;0.48785166240409206;0.23554987212276216;0.44143222506393864;0.27237851662404094;1.0;0.5664961636828645;0.37506393861892584;0.19667519181585677;0.5239130434782608;0.2529411764705882;1.0;0.29411764705882354;0.17468030690537084;0.451150895140665;0.20127877237851663;1.0;0.34232736572890027;0.3180306905370844;0.30447570332480817;1.0;0.19603580562659847;0.2575447570332481;1.0;0.3127877237851662;1.0
0;S36;Square;1.0;0.058567774936061384;0.058567774936061384;0.06751918158567775;0.05805626598465473;0.05421994884910486;0.0710997442455243;0.06304347826086956;1.0;0.60076726342711;0.38081841432225066;0.5404092071611253;0.30831202046035805;0.47468030690537083;0.3690537084398977;1.0;0.5379795396419438;0.3765984654731458;0.2234015345268542;0.5092071611253197;0.2744245524296675;1.0;0.24104859335038364;0.16035805626598465;0.39539641943734016;0.18593350383631713;1.0;0.4731457800511509;0.33644501278772376;0.46329923273657286;1.0;0.21687979539641944;0.390537084398977;1.0;0.3698209718670077;1.0
0;S37;Square;1.0;0.08772378516624041;0.0959079283887468;0.10063938618925831;0.09002557544757034;0.08107416879795397;0.10549872122762148;0.0969309462915601;1.0;0.5308184143222506;0.33951406649616367;0.5225063938618926;0.2618925831202046;0.48427109974424554;0.5095907928388747;1.0;0.5553708439897698;0.3244245524296675;0.19143222506393862;0.6537084398976982;0.3415601023017903;1.0;0.2289002557544757;0.15664961636828645;0.4932225063938619;0.22877237851662405;1.0;0.4530690537084399;0.3075447570332481;0.5955242966751918;1.0;0.1826086956521739;0.3625319693094629;1.0;0.37084398976982097;1.0
