;Subject;Test;FCz;FCz Oz;FCz O1;FCz PO8;FCz O2;FCz PO7;FCz PO3;FCz PO4;Oz Oz;Oz O1;Oz PO8;Oz O2;Oz PO7;Oz PO3;Oz PO4;O1 O1;O1 PO8;O1 O2;O1 PO7;O1 PO3;O1 PO4;PO8 PO8;O2 PO8;PO7 PO8;PO3 PO8;PO4 PO8;O2 O2;O2 PO7;O2 PO3;O2 PO4;PO7 PO7;PO7 PO3;PO7 PO4;PO3 PO3;PO3 PO4;PO4 PO4
0;S2;Resting Open;1.0;0.15552779512804496;0.15590256089943785;0.15165521549031855;0.15440349781386634;0.1490318550905684;0.1391630231105559;0.12667083073079324;1.0;0.938788257339163;0.5847595252966896;0.5420362273579014;0.4647095565271705;0.7360399750156152;0.4158650843222986;1.0;0.5963772642098688;0.5442848219862586;0.46595877576514677;0.7414116177389132;0.41449094316052465;1.0;0.391630231105559;0.348157401623985;0.5661461586508432;0.3216739537788882;1.0;0.7024359775140537;0.5460337289194254;0.5267957526545909;1.0;0.47183010618363525;0.5382885696439725;1.0;0.4635852592129919;1.0
0;S3;Resting Open;1.0;0.14678326046221113;0.12304809494066209;0.13041848844472204;0.1291692692067458;0.1301686445971268;0.10430980637101811;0.1184259837601499;1.0;0.4782011242973142;0.39400374765771395;0.5044347282948157;0.2970643347907558;0.3636477201748907;0.44359775140537167;1.0;0.42460961898813243;0.3489069331667708;0.22985633978763273;0.3527795128044972;0.32804497189256715;1.0;0.26595877576514676;0.19262960649594005;0.31005621486570895;0.2543410368519675;1.0;0.3391630231105559;0.28856964397251716;0.4908182386008745;1.0;0.19038101186758277;0.313054341036852;1.0;0.32717051842598377;1.0
0;S5;Resting Open;1.0;0.10418488444722049;0.11030605871330418;0.12042473454091193;0.09981261711430356;0.10843222985633978;0.10156152404747033;0.08532167395377889;1.0;0.45121798875702684;0.27345409119300434;0.41861336664584636;0.3178013741411618;0.4248594628357277;0.35165521549031853;1.0;0.39525296689569017;0.27382885696439724;0.24259837601499062;0.4397251717676452;0.24084946908182386;1.0;0.18176139912554654;0.1748906933166771;0.33479075577763895;0.1603997501561524;1.0;0.41399125546533416;0.27245471580262337;0.387632729544035;1.0;0.23647720174890693;0.3336664584634603;1.0;0.273579013116802;1.0
0;S7;Resting Open;1.0;0.11205496564647095;0.11717676452217364;0.10855715178013742;0.11292941911305435;0.10693316677076826;0.10056214865708932;0.09356652092442223;1.0;0.5095565271705185;0.46196127420362276;0.4938163647720175;0.3420362273579013;0.43710181136789505;0.41911305434103685;1.0;0.5622735790131168;0.35065584009993755;0.2500936914428482;0.44059962523422863;0.31018113678950654;1.0;0.31255465334166144;0.22885696439725173;0.4076202373516552;0.26783260462211117;1.0;0.4798251093066833;0.3230480949406621;0.44871955028107435;1.0;0.2386008744534666;0.4048719550281074;1.0;0.3395377888819488;1.0
0;S10;Resting Open;1.0;0.11205496564647095;0.10443472829481575;0.09831355402873204;0.11667707682698314;0.11330418488444723;0.09743910056214866;0.1155527795128045;1.0;0.6415990006246096;0.45871330418488443;0.551530293566521;0.3472829481574016;0.5101811367895066;0.5405371642723298;1.0;0.6785758900687071;0.36989381636477203;0.25783885071830104;0.6457214241099313;0.3735165521549032;1.0;0.28382261086820737;0.21261711430356028;0.548157401623985;0.28382261086820737;1.0;0.5647720174890694;0.31867582760774515;0.7153029356652092;1.0;0.22860712054965646;0.4803247970018738;1.0;0.3325421611492817;1.0
0;S11;Resting Open;1.0;0.16214865708931916;0.147158026233604;0.1447845096814491;0.1524047470331043;0.14540911930043723;0.12204871955028107;0.12966895690193628;1.0;0.6515927545284197;0.44734540911930043;0.7009369144284822;0.370893191755153;0.47058088694565897;0.4788257339163023;1.0;0.5982510930668332;0.4938163647720175;0.28519675202998124;0.548157401623985;0.38513429106808245;1.0;0.3452841973766396;0.22473454091193004;0.5038101186758276;0.2871955028107433;1.0;0.4463460337289194;0.40462211118051217;0.5556527170518426;1.0;0.2614615865084322;0.3735165521549032;1.0;0.42523422860712057;1.0
0;S13;Resting Open;1.0;0.14740787008119924;0.13766396002498438;0.13504059962523424;0.14216114928169893;0.1316677076826983;0.13191755153029355;0.13141786383510307;1.0;0.537788881948782;0.41998750780762023;0.5800124921923797;0.4127420362273579;0.4042473454091193;0.5079325421611492;1.0;0.6002498438475953;0.4036227357901312;0.2994378513429107;0.49369144284821986;0.3848844472204872;1.0;0.3259212991880075;0.2555902560899438;0.43747657713928795;0.30418488444722047;1.0;0.5571517801374141;0.357526545908807;0.6468457214241099;1.0;0.297314178638351;0.5449094316052467;1.0;0.4023735165521549;1.0
0;S14;Resting Open;1.0;0.12941911305434103;0.12017489069331667;0.09793878825733916;0.11955028107432855;0.13491567770143661;0.10443472829481575;0.11430356027482823;1.0;0.3514053716427233;0.2028732042473454;0.33516552154903184;0.28507183010618364;0.3136789506558401;0.33991255465334164;1.0;0.32492192379762647;0.292317301686446;0.23922548407245472;0.37576514678326045;0.2868207370393504;1.0;0.17089319175515302;0.15227982510930668;0.21161773891317925;0.16527170518425985;1.0;0.30918176139912557;0.2583385384134916;0.33391630231105557;1.0;0.2221111805121799;0.2950655840099938;1.0;0.3060587133041849;1.0
0;S15;Resting Open;1.0;0.12142410993129295;0.11567770143660212;0.12154903185509057;0.12579637726420986;0.126420986883198;0.08856964397251718;0.0834478450968145;1.0;0.5818863210493441;0.41161773891317927;0.5890068707058088;0.3290443472829482;0.41561524047470333;0.317051842598376;1.0;0.5582760774515928;0.3770143660212367;0.24134915677701438;0.4074953154278576;0.23123048094940662;1.0;0.275577763897564;0.19975015615240474;0.3778888194878201;0.1872579637726421;1.0;0.4920674578388507;0.324422236102436;0.39125546533416616;1.0;0.212367270455965;0.2950655840099938;1.0;0.3541536539662711;1.0
0;S16;Resting Open;1.0;0.12154903185509057;0.1089319175515303;0.11217988757026859;0.12354778263585259;0.1457838850718301;0.10455965021861337;0.10955652717051842;1.0;0.4450968144909432;0.39025608994378513;0.42810743285446595;0.30618363522798253;0.3505309181761399;0.33504059962523425;1.0;0.43697688944409746;0.3306683322923173;0.2258588382261087;0.38326046221111804;0.2939412866958151;1.0;0.3136789506558401;0.242473454091193;0.36814490943160527;0.24971892567145534;1.0;0.3920049968769519;0.3029356652092442;0.4017489069331668;1.0;0.22485946283572766;0.29206745783885074;1.0;0.30780762023735164;1.0
0;S18;Resting Open;1.0;0.16577139287945034;0.16502186133666458;0.14740787008119924;0.17001873828856964;0.16539662710805747;0.12816989381636476;0.12904434728294817;1.0;0.656214865708932;0.4669581511555278;0.5616489693941287;0.408369768894441;0.4657089319175515;0.3865084322298563;1.0;0.6278575890068707;0.4772017489069332;0.34366021236727046;0.5150530918176139;0.31355402873204247;1.0;0.3514053716427233;0.25146783260462213;0.46058713304184884;0.23710181136789507;1.0;0.5843847595252967;0.35465334166146156;0.46483447845096815;1.0;0.27133041848844475;0.45546533416614615;1.0;0.3446595877576515;1.0
0;S20;Resting Open;1.0;0.12729544034978138;0.11692692067457838;0.12029981261711431;0.13454091193004372;0.16964397251717678;0.11505309181761399;0.12367270455965022;1.0;0.5449094316052467;0.3911305434103685;0.52841973766396;0.3962523422860712;0.42098688319800126;0.4523422860712055;1.0;0.5178013741411618;0.4166146158650843;0.3095565271705184;0.5103060587133041;0.3584009993753904;1.0;0.3302935665209244;0.2693316677076827;0.41474078700811995;0.26708307307932544;1.0;0.5305434103685197;0.324422236102436;0.42186133666458464;1.0;0.2650843222985634;0.38038725796377265;1.0;0.3777638975640225;1.0
0;S21;Resting Open;1.0;0.11592754528419738;0.10630855715178014;0.09618988132417239;0.12841973766396003;0.13878825733916303;0.09531542785758901;0.11267957526545909;1.0;0.484946908182386;0.3845096814490943;0.5178013741411618;0.3586508432229856;0.38938163647720175;0.4018738288569644;1.0;0.5136789506558401;0.3497813866333542;0.2500936914428482;0.38588382261086823;0.2949406620861961;1.0;0.28981886321049344;0.2023735165521549;0.35690193628981887;0.25446595877576517;1.0;0.46520924422236104;0.31255465334166144;0.4458463460337289;1.0;0.23322923173016866;0.3613991255465334;1.0;0.3525296689569019;1.0
0;S22;Resting Open;1.0;0.20787008119925046;0.20649594003747657;0.20874453466583384;0.2089943785134291;0.22810743285446597;0.16527170518425985;0.1683947532792005;1.0;0.5584009993753903;0.49256714553404124;0.5765146783260462;0.44172392254840726;0.4407245471580262;0.46096189881324173;1.0;0.5690193628981887;0.5011867582760775;0.3838850718301062;0.4407245471580262;0.39875078076202375;1.0;0.4278575890068707;0.3424109931292942;0.41199250468457216;0.34091193004372267;1.0;0.5407870081199251;0.42348532167395375;0.5372891942535915;1.0;0.3561524047470331;0.47058088694565897;1.0;0.4509681449094316;1.0
0;S23;Resting Open;1.0;0.11118051217988757;0.11892567145534041;0.1165521549031855;0.11530293566520924;0.12492192379762648;0.10530918176139913;0.10443472829481575;1.0;0.5676452217364147;0.4256089943785134;0.5542785758900687;0.44447220487195505;0.41211742660836975;0.43897564022485946;1.0;0.5855090568394753;0.39487820112429733;0.3330418488444722;0.4537164272329794;0.34291068082448467;1.0;0.3024359775140537;0.25771392879450344;0.42098688319800126;0.2739537788881949;1.0;0.5696439725171768;0.3216739537788882;0.463210493441599;1.0;0.27420362273579013;0.46633354153653966;1.0;0.35390381011867583;1.0
0;S24;Resting Open;1.0;0.10880699562773266;0.10206121174266083;0.10031230480949406;0.10968144909431606;0.10306058713304185;0.07895065584009994;0.07870081199250469;1.0;0.4818238600874453;0.3161773891317926;0.554153653966271;0.35540287320424735;0.3495315427857589;0.3966271080574641;1.0;0.41286695815115554;0.345159275452842;0.2358525921299188;0.3584009993753904;0.2688319800124922;1.0;0.2419737663960025;0.18088694565896316;0.28931917551530295;0.1867582760774516;1.0;0.5311680199875078;0.2590880699562773;0.47195502810743284;1.0;0.19750156152404746;0.40637101811367893;1.0;0.2996876951905059;1.0
0;S26;Resting Open;1.0;0.07657713928794503;0.07857589006870706;0.07757651467832605;0.07532792004996877;0.06733291692692067;0.08144909431605246;0.08732042473454091;1.0;0.29406620861961275;0.21798875702685822;0.24172392254840724;0.13091817613991255;0.2609618988132417;0.23660212367270456;1.0;0.4042473454091193;0.23397876327295442;0.13291692692067458;0.41211742660836975;0.2278575890068707;1.0;0.17001873828856964;0.11255465334166147;0.27682698313554027;0.1680199875078076;1.0;0.19400374765771392;0.20349781386633353;0.338788257339163;1.0;0.1245471580262336;0.17851342910680826;1.0;0.22848219862585883;1.0
0;S27;Resting Open;1.0;0.07295440349781386;0.07058088694565896;0.06683322923173017;0.07232979387882574;0.07370393504059962;0.06958151155527795;0.08182386008744534;1.0;0.4708307307932542;0.3552779512804497;0.38663335415365396;0.2875702685821362;0.22286071205496566;0.2896939412866958;1.0;0.4864459712679575;0.3320424734540912;0.2465958775765147;0.24934415990006245;0.23835103060587132;1.0;0.25808869456589634;0.20137414116177388;0.24034978138663335;0.20861961274203622;1.0;0.38825733916302313;0.19063085571517802;0.32617114303560274;1.0;0.16964397251717678;0.31355402873204247;1.0;0.1991255465334166;1.0
0;S28;Resting Open;1.0;0.07207995003123048;0.0778263585259213;0.0806995627732667;0.07595252966895691;0.07795128044971893;0.09519050593379139;0.07795128044971893;1.0;0.21174266083697688;0.22111180512179887;0.19237976264834478;0.13603997501561524;0.22998126171143035;0.16002498438475954;1.0;0.32342286071205495;0.1811367895065584;0.11680199875078076;0.29981261711430357;0.14141161773891317;1.0;0.18176139912554654;0.12004996876951905;0.3857589006870706;0.14128669581511555;1.0;0.25783885071830104;0.20487195502810743;0.30393504059962523;1.0;0.12317301686445971;0.24509681449094317;1.0;0.17139287945034354;1.0
0;S29;Resting Open;1.0;0.08457214241099313;0.08582136164896939;0.07457838850718301;0.07345409119300438;0.06670830730793255;0.10480949406620862;0.0919425359150531;1.0;0.42223610243597753;0.2594628357276702;0.4041224234853217;0.21149281698938163;0.31442848219862585;0.3740162398500937;1.0;0.34316052467207997;0.27145534041224234;0.1656464709556527;0.32767020612117426;0.26433479075577765;1.0;0.17788881948782012;0.13354153653966272;0.2428482198625859;0.16439725171767644;1.0;0.3560274828232355;0.1957526545908807;0.3982510930668332;1.0;0.13316677076826983;0.2570893191755153;1.0;0.3055590256089944;1.0
0;S30;Resting Open;1.0;0.06470955652717052;0.06970643347907558;0.07083073079325422;0.05783885071830106;0.06396002498438476;0.08332292317301686;0.07570268582136165;1.0;0.6221111805121798;0.3231730168644597;0.3134291068082449;0.26708307307932544;0.4036227357901312;0.33429106808244846;1.0;0.4820737039350406;0.2292317301686446;0.20599625234228608;0.43048094940662085;0.25421611492816987;1.0;0.15015615240474703;0.1646470955652717;0.3354153653966271;0.17276702061211743;1.0;0.2856964397251718;0.17289194253591506;0.24397251717676452;1.0;0.18938163647720174;0.4397251717676452;1.0;0.329419113054341;1.0
0;S32;Resting Open;1.0;0.06633354153653966;0.06708307307932543;0.06870705808869457;0.06858213616489695;0.06708307307932543;0.07145534041224234;0.0778263585259213;1.0;0.5837601499063085;0.36752029981261713;0.5148032479700188;0.28981886321049344;0.4740787008119925;0.42223610243597753;1.0;0.5181761399125546;0.38238600874453466;0.22435977514053718;0.5389131792629607;0.31992504684572143;1.0;0.2509681449094316;0.1748906933166771;0.41761399125546533;0.22386008744534666;1.0;0.3773891317926296;0.3310430980637102;0.4118675827607745;1.0;0.20787008119925046;0.2990630855715178;1.0;0.38276077451592755;1.0
0;S33;Resting Open;1.0;0.06620861961274203;0.061586508432229854;0.056214865708931916;0.06208619612742036;0.06346033728919426;0.07382885696439725;0.07133041848844472;1.0;0.49494066208619614;0.3246720799500312;0.345159275452842;0.21299188007495315;0.4008744534665834;0.3211742660836977;1.0;0.5307932542161149;0.22111180512179887;0.15877576514678327;0.5158026233603997;0.21574016239850094;1.0;0.1576514678326046;0.12179887570268583;0.43460337289194256;0.1485321673953779;1.0;0.3212991880074953;0.20174890693316677;0.44372267332916926;1.0;0.14166146158650844;0.30618363522798253;1.0;0.23272954403497814;1.0
0;S34;Resting Open;1.0;0.0650843222985634;0.060712054965646474;0.06670830730793255;0.06770768269831355;0.06783260462211119;0.08794503435352904;0.09706433479075578;1.0;0.484946908182386;0.308682073703935;0.3872579637726421;0.20699562773266708;0.324422236102436;0.24159900062460962;1.0;0.5320424734540912;0.2377264209868832;0.14928169893816365;0.36514678326046224;0.18001249219237977;1.0;0.18188632104934416;0.12816989381636476;0.33941286695815115;0.1510306058713304;1.0;0.42648344784509684;0.22523422860712056;0.3145534041224235;1.0;0.14091193004372268;0.24047470331043097;1.0;0.27620237351655214;1.0
0;S35;Resting Open;1.0;0.08194878201124298;0.08282323547782636;0.07932542161149282;0.0815740162398501;0.07083073079325422;0.09306683322923173;0.10356027482823235;1.0;0.5222985633978763;0.3747657713928795;0.49256714553404124;0.24084946908182386;0.4372267332916927;0.25221736414740786;1.0;0.486945658963148;0.36352279825109307;0.18788257339163023;0.4427232979387883;0.2202373516552155;1.0;0.24684572142410993;0.15227982510930668;0.3587757651467833;0.16614615865084323;1.0;0.3617738913179263;0.3227982510930668;0.29793878825733916;1.0;0.1777638975640225;0.2226108682073704;1.0;0.27995003123048096;1.0
0;S36;Resting Open;1.0;0.07720174890693317;0.07133041848844472;0.06820737039350407;0.07932542161149282;0.06171143035602748;0.08769519050593379;0.09256714553404122;1.0;0.5015615240474703;0.30031230480949406;0.43747657713928795;0.19025608994378512;0.35890068707058087;0.3004372267332917;1.0;0.39025608994378513;0.2888194878201124;0.16052467207995003;0.3645221736414741;0.23173016864459714;1.0;0.200999375390381;0.14678326046221113;0.26820737039350406;0.1590256089943785;1.0;0.2650843222985634;0.25346658338538414;0.33316677076826984;1.0;0.15302935665209244;0.19612742036227357;1.0;0.33229231730168646;1.0
0;S37;Resting Open;1.0;0.08082448469706434;0.08269831355402874;0.08494690818238601;0.07632729544034979;0.06783260462211119;0.09331667707682699;0.08094940662086196;1.0;0.44884447220487195;0.2613366645846346;0.44559650218613367;0.19025608994378512;0.4203622735790131;0.4183635227982511;1.0;0.45084322298563395;0.25209244222361027;0.1326670830730793;0.6965646470955653;0.24734540911930045;1.0;0.16052467207995003;0.09618988132417239;0.41124297314178637;0.15153029356652092;1.0;0.34141161773891315;0.2382261086820737;0.5417863835103061;1.0;0.12379762648344785;0.2914428482198626;1.0;0.2629606495940037;1.0
0;S2;Resting;1.0;0.11805121798875702;0.11892567145534041;0.11242973141786383;0.13416614615865086;0.14728294815740162;0.11180512179887571;0.11392879450343535;1.0;0.944159900062461;0.6144909431605247;0.6046221111805122;0.4976889444097439;0.711680199875078;0.44172392254840726;1.0;0.6267332916926921;0.5998750780762023;0.49419113054341035;0.7115552779512805;0.4357276702061212;1.0;0.43135540287320423;0.3680199875078076;0.5590256089943785;0.3169269206745784;1.0;0.7656464709556527;0.6022485946283572;0.618738288569644;1.0;0.5005621486570894;0.6102435977514054;1.0;0.5004372267332917;1.0
0;S3;Resting;1.0;0.13991255465334165;0.12142410993129295;0.11892567145534041;0.12816989381636476;0.1311680199875078;0.11005621486570893;0.12229856339787633;1.0;0.4816989381636477;0.3632729544034978;0.5464084946908182;0.322423485321674;0.3865084322298563;0.45359150530918174;1.0;0.4326046221111805;0.3269206745783885;0.21761399125546532;0.37301686445971266;0.2856964397251718;1.0;0.24684572142410993;0.17276702061211743;0.31905059337913805;0.22361024359775142;1.0;0.37051842598376017;0.3106808244846971;0.4981886321049344;1.0;0.21636477201748908;0.34166146158650845;1.0;0.3145534041224235;1.0
0;S5;Resting;1.0;0.09793878825733916;0.10381011867582761;0.11455340412242349;0.09206745783885072;0.09981261711430356;0.08482198625858839;0.07982510930668332;1.0;0.3985009369144285;0.22635852592129918;0.4500936914428482;0.2949406620861961;0.4189881324172392;0.32654590880699563;1.0;0.4555902560899438;0.2306058713304185;0.19275452841973767;0.4373516552154903;0.18338538413491567;1.0;0.14553404122423486;0.13391630231105559;0.3138038725796377;0.12142410993129295;1.0;0.4504684572142411;0.25071830106183635;0.429106808244847;1.0;0.19562773266708308;0.33154278575890067;1.0;0.2316052467207995;1.0
0;S7;Resting;1.0;0.137788881948782;0.13466583385384134;0.1325421611492817;0.1311680199875078;0.13479075577763897;0.11505309181761399;0.1193004372267333;1.0;0.5407870081199251;0.49256714553404124;0.4614615865084322;0.34603372891942535;0.4372267332916927;0.41486570893191754;1.0;0.6139912554653342;0.37613991255465334;0.2782011242973142;0.466208619612742;0.31867582760774515;1.0;0.35078076202373515;0.24647095565271704;0.45871330418488443;0.28744534665833854;1.0;0.47457838850718304;0.31005621486570895;0.42286071205496567;1.0;0.24634603372891942;0.4154903185509057;1.0;0.33329169269206743;1.0
0;S10;Resting;1.0;0.09793878825733916;0.09968769519050594;0.0990630855715178;0.10530918176139913;0.11830106183635228;0.09444097439100563;0.09469081823860087;1.0;0.60737039350406;0.431105559025609;0.550156152404747;0.35340412242348535;0.551530293566521;0.5050593379138039;1.0;0.6803247970018739;0.37763897564022486;0.27295440349781386;0.7917551530293566;0.34316052467207997;1.0;0.2801998750780762;0.2241099312929419;0.6234853216739538;0.2509681449094316;1.0;0.5933791380387258;0.3435352904434728;0.7176764522173642;1.0;0.24634603372891942;0.482948157401624;1.0;0.33316677076826984;1.0
0;S11;Resting;1.0;0.13091817613991255;0.1165521549031855;0.10830730793254216;0.125421611492817;0.13004372267332917;0.08269831355402874;0.09531542785758901;1.0;0.6815740162398501;0.4500936914428482;0.7647720174890693;0.47895065584009994;0.3885071830106184;0.5075577763897564;1.0;0.61736414740787;0.5560274828232354;0.36814490943160527;0.4966895690193629;0.41911305434103685;1.0;0.37963772642098687;0.29169269206745785;0.46683322923173015;0.30780762023735164;1.0;0.6071205496564647;0.3537788881948782;0.5957526545908807;1.0;0.2677076826983136;0.48044971892567145;1.0;0.4094940662086196;1.0
0;S13;Resting;1.0;0.137788881948782;0.13079325421611493;0.12004996876951905;0.1372891942535915;0.13978763272954403;0.10818238600874454;0.12804497189256714;1.0;0.5335415365396627;0.3911305434103685;0.5330418488444723;0.34840724547158025;0.3868831980012492;0.4682073703935041;1.0;0.5972517176764522;0.3551530293566521;0.263210493441599;0.4547158026233604;0.33978763272954404;1.0;0.2798251093066833;0.22485946283572766;0.43660212367270457;0.2769519050593379;1.0;0.5496564647095565;0.3109306683322923;0.6673329169269206;1.0;0.24359775140537165;0.5476577139287945;1.0;0.3496564647095565;1.0
0;S14;Resting;1.0;0.12129918800749531;0.11805121798875702;0.10480949406620862;0.13691442848219862;0.13279200499687696;0.09643972517176765;0.1051842598376015;1.0;0.43660212367270457;0.2697064334790756;0.4948157401623985;0.3514053716427233;0.3783885071830106;0.39400374765771395;1.0;0.4387257963772642;0.36052467207995004;0.263210493441599;0.4357276702061212;0.2825733916302311;1.0;0.22960649594003749;0.1863835103060587;0.27607745159275454;0.1872579637726421;1.0;0.4599625234228607;0.294316052467208;0.44059962523422863;1.0;0.22398500936914428;0.36064959400374763;1.0;0.31480324797001874;1.0
0;S15;Resting;1.0;0.1165521549031855;0.11942535915053092;0.12092442223610243;0.1179262960649594;0.12317301686445971;0.08757026858213617;0.08132417239225484;1.0;0.590630855715178;0.4098688319800125;0.5482823235477826;0.30393504059962523;0.4134915677701437;0.32379762648344784;1.0;0.6226108682073704;0.3466583385384135;0.22011242973141787;0.42111180512179885;0.21811367895065584;1.0;0.25296689569019365;0.18063710181136788;0.36164896939412866;0.17539038101186757;1.0;0.5115552779512804;0.2950655840099938;0.4008744534665834;1.0;0.19962523422860712;0.3095565271705184;1.0;0.3184259837601499;1.0
0;S16;Resting;1.0;0.10256089943785135;0.10243597751405371;0.10905683947532792;0.11917551530293566;0.1245471580262336;0.09381636477201749;0.0900687070580887;1.0;0.5224234853216739;0.42573391630231106;0.5216739537788881;0.35577763897564024;0.4316052467207995;0.3973766396002498;1.0;0.5241723922548407;0.4084946908182386;0.304684572142411;0.41324172392254843;0.3113054341036852;1.0;0.3617738913179263;0.2970643347907558;0.35740162398500935;0.25346658338538414;1.0;0.5095565271705185;0.3622735790131168;0.47183010618363525;1.0;0.2727045596502186;0.36214865708931915;1.0;0.3758900687070581;1.0
0;S18;Resting;1.0;0.126420986883198;0.11730168644597126;0.10493441599000625;0.13191755153029355;0.1485321673953779;0.09169269206745784;0.11330418488444723;1.0;0.5837601499063085;0.3763897564022486;0.46196127420362276;0.2981886321049344;0.3868831980012492;0.29606495940037475;1.0;0.5600249843847596;0.3329169269206746;0.21848844472204873;0.42773266708307306;0.21736414740787008;1.0;0.23460337289194252;0.16964397251717678;0.35165521549031853;0.16214865708931916;1.0;0.49456589631480324;0.25733916302311055;0.38563397876327293;1.0;0.18825733916302312;0.3837601499063086;1.0;0.24572142410993128;1.0
0;S20;Resting;1.0;0.12392254840724547;0.11105559025608995;0.12017489069331667;0.14553404122423486;0.1613991255465334;0.0971892567145534;0.10905683947532792;1.0;0.45071830106183636;0.3419113054341037;0.44609618988132416;0.29718925671455343;0.3282948157401624;0.4241099312929419;1.0;0.48094940662086194;0.3645221736414741;0.24447220487195503;0.49531542785758903;0.3771392879450344;1.0;0.34490943160524673;0.2585883822610868;0.39550281074328547;0.2905683947532792;1.0;0.5773891317926296;0.2704559650218613;0.4283572767020612;1.0;0.1848844472204872;0.2946908182386009;1.0;0.39400374765771395;1.0
0;S21;Resting;1.0;0.08831980012492192;0.09144284821986258;0.09019362898188632;0.09618988132417239;0.10031230480949406;0.07657713928794503;0.0797001873828857;1.0;0.4722048719550281;0.3529044347282948;0.4669581511555278;0.2954403497813866;0.35215490318550907;0.3450343535290443;1.0;0.5139287945034353;0.29756402248594627;0.20811992504684573;0.33928794503435356;0.24309806371018114;1.0;0.233104309806371;0.1680199875078076;0.28669581511555275;0.19113054341036853;1.0;0.4450968144909432;0.24934415990006245;0.39362898188632106;1.0;0.18276077451592754;0.30655840099937537;1.0;0.3094316052467208;1.0
0;S22;Resting;1.0;0.2397251717676452;0.24072454715802624;0.23547782635852593;0.2306058713304185;0.21836352279825108;0.17226733291692692;0.17051842598376016;1.0;0.681948782011243;0.5676452217364147;0.6618363522798251;0.4467207995003123;0.47432854465958774;0.4520924422236102;1.0;0.654840724547158;0.5184259837601499;0.35590256089943784;0.46945658963148035;0.3701436602123673;1.0;0.44034978138663333;0.3334166146158651;0.4316052467207995;0.30418488444722047;1.0;0.551155527795128;0.4024984384759525;0.49269206745783883;1.0;0.29019362898188633;0.3863835103060587;1.0;0.45534041224234856;1.0
0;S23;Resting;1.0;0.1490318550905684;0.166895690193629;0.1665209244222361;0.15028107432854465;0.16152404747033106;0.12392254840724547;0.11217988757026859;1.0;0.650843222985634;0.4567145534041224;0.6610868207370394;0.5291692692067458;0.4908182386008745;0.4244846970643348;1.0;0.647470331043098;0.4974391005621487;0.4154903185509057;0.4442223610243598;0.29918800749531543;1.0;0.3720174890693317;0.3369144284821986;0.35227982510930667;0.22111180512179887;1.0;0.650843222985634;0.39800124921923796;0.4557151780137414;1.0;0.333791380387258;0.42061211742660837;1.0;0.42523422860712057;1.0
0;S24;Resting;1.0;0.12954403497813866;0.11630231105559026;0.0948157401623985;0.13029356652092441;0.13191755153029355;0.08557151780137415;0.09431605246720799;1.0;0.5136789506558401;0.2904434728294816;0.6028732042473454;0.41986258588382264;0.3489069331667708;0.44846970643347905;1.0;0.46171143035602746;0.3290443472829482;0.25584009993753903;0.4415990006246096;0.262211118051218;1.0;0.21399125546533418;0.18001249219237977;0.3019362898188632;0.17851342910680826;1.0;0.67158026233604;0.23835103060587132;0.5752654590880699;1.0;0.18975640224859464;0.47345409119300436;1.0;0.24559650218613366;1.0
0;S26;Resting;1.0;0.05871330418488445;0.0637101811367895;0.06545908806995628;0.06308557151780138;0.05846346033728919;0.06845721424109931;0.07045596502186134;1.0;0.3136789506558401;0.20024984384759525;0.26196127420362275;0.14603372891942537;0.2480949406620862;0.24459712679575266;1.0;0.44459712679575264;0.200999375390381;0.11342910680824485;0.4727045596502186;0.17813866333541536;1.0;0.137788881948782;0.09369144284821987;0.336789506558401;0.1267957526545909;1.0;0.2563397876327295;0.1645221736414741;0.41911305434103685;1.0;0.10630855715178014;0.21499063085571518;1.0;0.17539038101186757;1.0
0;S27;Resting;1.0;0.07570268582136165;0.08407245471580263;0.08607120549656465;0.08569643972517177;0.0881948782011243;0.0806995627732667;0.07945034353529044;1.0;0.4157401623985009;0.31355402873204247;0.35352904434728294;0.2344784509681449;0.25071830106183635;0.24334790755777638;1.0;0.48594628357276703;0.3146783260462211;0.20249843847595253;0.30106183635227984;0.20836976889444098;1.0;0.2467207995003123;0.17701436602123674;0.3103060587133042;0.18450968144909433;1.0;0.41011867582760775;0.1942535915053092;0.3099312929419113;1.0;0.1372891942535915;0.23535290443472828;1.0;0.21211742660836977;1.0
0;S28;Resting;1.0;0.0637101811367895;0.063210493441599;0.06258588382261086;0.063210493441599;0.06221111805121799;0.0627108057464085;0.06008744534665834;1.0;0.31168019987507806;0.2565896314803248;0.23785134291068083;0.13603997501561524;0.2994378513429107;0.2071205496564647;1.0;0.4044971892567146;0.20649594003747657;0.12354778263585259;0.37851342910680824;0.16851967520299813;1.0;0.17576514678326047;0.11667707682698314;0.355527795128045;0.14590880699562772;1.0;0.29456589631480323;0.19737663960024984;0.4407245471580262;1.0;0.11642723297938788;0.2570893191755153;1.0;0.19550281074328546;1.0
0;S29;Resting;1.0;0.09918800749531542;0.10356027482823235;0.10318550905683947;0.10106183635227982;0.09469081823860087;0.10955652717051842;0.10268582136164897;1.0;0.5138038725796378;0.29331667707682696;0.4739537788881949;0.2485946283572767;0.37489069331667707;0.4377264209868832;1.0;0.4598376014990631;0.31717676452217364;0.20262336039975015;0.4396002498438476;0.2995627732667083;1.0;0.21186758276077453;0.17101811367895065;0.3317926296064959;0.19637726420986884;1.0;0.4443472829481574;0.23885071830106183;0.48782011242973145;1.0;0.16164896939412868;0.30880699562773267;1.0;0.30455965021861336;1.0
0;S30;Resting;1.0;0.07370393504059962;0.07395377888819488;0.056714553404122424;0.0693316677076827;0.06858213616489695;0.08232354778263586;0.07395377888819488;1.0;0.6378513429106808;0.3098063710181137;0.3500312304809494;0.24159900062460962;0.4700811992504685;0.3693941286695815;1.0;0.4594628357276702;0.24797001873828858;0.18425983760149905;0.5143035602748283;0.27133041848844475;1.0;0.15577763897564023;0.13316677076826983;0.33154278575890067;0.15827607745159275;1.0;0.327420362273579;0.19512804497189257;0.3340412242348532;1.0;0.16851967520299813;0.3947532792004997;1.0;0.3099312929419113;1.0
0;S32;Resting;1.0;0.051342910680824486;0.04871955028107433;0.059962523422860715;0.051717676452217365;0.05584009993753904;0.05521549031855091;0.05808869456589631;1.0;0.5787632729544036;0.3382885696439725;0.5150530918176139;0.32142410993129295;0.4482198625858838;0.3962523422860712;1.0;0.5324172392254841;0.3400374765771393;0.22161149281698939;0.521424109931293;0.2730793254216115;1.0;0.24422236102435976;0.1815115552779513;0.35777638975640225;0.18663335415365398;1.0;0.506683322923173;0.2720799500312305;0.42523422860712057;1.0;0.19762648344784509;0.36052467207995004;1.0;0.3270455965021861;1.0
0;S33;Resting;1.0;0.07045596502186134;0.06246096189881324;0.061961274203622733;0.06333541536539662;0.07232979387882574;0.06845721424109931;0.0693316677076827;1.0;0.42810743285446595;0.2084946908182386;0.3114303560274828;0.11905059337913804;0.3364147407870081;0.2583385384134916;1.0;0.44059962523422863;0.15727670206121175;0.08956901936289818;0.4161149281698938;0.14091193004372268;1.0;0.10418488444722049;0.08032479700187382;0.2873204247345409;0.09206745783885072;1.0;0.23672704559650218;0.1495315427857589;0.4712054965646471;1.0;0.08032479700187382;0.19362898188632105;1.0;0.16402248594628357;1.0
0;S34;Resting;1.0;0.06620861961274203;0.0655840099937539;0.06383510306058714;0.06383510306058714;0.06183635227982511;0.0754528419737664;0.08794503435352904;1.0;0.5154278575890069;0.3269206745783885;0.4273579013116802;0.22948157401623984;0.39612742036227355;0.25384134915677703;1.0;0.5534041224234854;0.2689569019362898;0.16539662710805747;0.39262960649594003;0.1750156152404747;1.0;0.21449094316052467;0.15015615240474703;0.3071830106183635;0.14253591505309182;1.0;0.47195502810743284;0.26858213616489696;0.3424109931292942;1.0;0.16489693941286696;0.25534041224234855;1.0;0.2978138663335415;1.0
0;S35;Resting;1.0;0.07070580886945659;0.06920674578388507;0.07632729544034979;0.06920674578388507;0.056089943785134294;0.08769519050593379;0.08532167395377889;1.0;0.4954403497813866;0.39412866958151155;0.47058088694565897;0.2316052467207995;0.38975640224859465;0.22985633978763273;1.0;0.4816989381636477;0.3381636477201749;0.17901311680199875;0.4188632104934416;0.2018738288569644;1.0;0.2599625234228607;0.14128669581511555;0.3777638975640225;0.1486570893191755;1.0;0.35577763897564024;0.2754528419737664;0.27757651467832606;1.0;0.16239850093691444;0.21773891317926297;1.0;0.24209868831980014;1.0
0;S36;Resting;1.0;0.07020612117426608;0.0730793254216115;0.07582760774515927;0.06758276077451593;0.08319800124921924;0.07008119925046846;0.06783260462211119;1.0;0.49406620861961276;0.26445971267957524;0.41823860087445347;0.20874453466583384;0.39800124921923796;0.28619612742036227;1.0;0.44184884447220485;0.2627108057464085;0.1510306058713304;0.49606495940037476;0.19975015615240474;1.0;0.16489693941286696;0.11580262336039975;0.3071830106183635;0.13329169269206745;1.0;0.3997501561524047;0.2382261086820737;0.43235477826358526;1.0;0.1475327920049969;0.3094316052467208;1.0;0.2490943160524672;1.0
0;S37;Resting;1.0;0.06346033728919426;0.05584009993753904;0.05758900687070581;0.05296689569019363;0.05758900687070581;0.061961274203622733;0.05584009993753904;1.0;0.3296689569019363;0.16864459712679575;0.37151780137414114;0.11093066833229231;0.3169269206745784;0.34678326046221114;1.0;0.3947532792004997;0.18363522798251092;0.10056214865708932;0.708682073703935;0.1930043722673329;1.0;0.11105559025608995;0.08669581511555279;0.36389756402248596;0.11105559025608995;1.0;0.220737039350406;0.17164272329793878;0.5300437226733292;1.0;0.09381636477201749;0.19113054341036853;1.0;0.20649594003747657;1.0
0;S2;Square;1.0;0.14350282485875707;0.14463276836158193;0.13684871311989957;0.1398618957940992;0.16509730069052103;0.1367231638418079;0.12467043314500942;1.0;0.9195229127432517;0.6526051475204018;0.38681732580037664;0.4566227244193346;0.5640929064657878;0.36170747018204646;1.0;0.6688010043942247;0.3817953546767106;0.45222849968612683;0.5655994978028877;0.35706214689265536;1.0;0.35065913370998114;0.39949780288763337;0.5129943502824859;0.31814187068424354;1.0;0.42862523540489644;0.37815442561205276;0.36986817325800375;1.0;0.42297551789077215;0.4651600753295669;1.0;0.3756434400502197;1.0
0;S3;Square;1.0;0.1354676710608914;0.12379158819836786;0.11763967357187696;0.1315756434400502;0.1401129943502825;0.09930947897049593;0.11462649089767733;1.0;0.5874450721908349;0.4504708097928437;0.6027620841180164;0.4384180790960452;0.44708097928436913;0.48386691776522284;1.0;0.579158819836786;0.421217827997489;0.31613308223477715;0.44795982423101066;0.34676710608913996;1.0;0.34664155681104836;0.2706842435655995;0.394601381042059;0.2957940991839297;1.0;0.5363465160075329;0.36170747018204646;0.5745134965473948;1.0;0.2754551161330822;0.48085373509102325;1.0;0.381293157564344;1.0
0;S5;Square;1.0;0.10998116760828625;0.11688637790332705;0.11889516635279347;0.12065285624607658;0.12743251726302574;0.10696798493408663;0.11098556183301946;1.0;0.4156936597614564;0.3210295040803515;0.3912115505335844;0.2793471437539234;0.418706842435656;0.2934086629001883;1.0;0.4251098556183302;0.2819836785938481;0.2325172630257376;0.4130571249215317;0.2263653483992467;1.0;0.2222222222222222;0.18819836785938482;0.35605775266792217;0.18920276208411801;1.0;0.3864406779661017;0.2837413684871312;0.34199623352165726;1.0;0.2281230382925298;0.31424984306340237;1.0;0.2580037664783427;1.0
0;S7;Square;1.0;0.13509102322661645;0.12554927809165098;0.12693032015065914;0.15881983678593847;0.1657250470809793;0.11136220966729442;0.1433772755806654;1.0;0.5340866290018832;0.4377903327055869;0.5308223477715003;0.3583176396735719;0.45260514752040176;0.4929064657878217;1.0;0.5551789077212806;0.40891399874450723;0.2749529190207156;0.4812303829252982;0.389202762084118;1.0;0.34488386691776524;0.2386691776522285;0.46114249843063404;0.32404268675455117;1.0;0.5148775894538606;0.3674827369742624;0.5519146264908977;1.0;0.2598870056497175;0.4608913998744507;1.0;0.40188323917137475;1.0
0;S10;Square;1.0;0.10006277463904582;0.09767733835530445;0.09353421217827998;0.11236660389202763;0.11462649089767733;0.09165097300690521;0.10232266164469554;1.0;0.6337727558066542;0.4775894538606403;0.5989956057752668;0.3244193345888261;0.5048336472065286;0.5065913370998116;1.0;0.6479598242310106;0.44595103578154427;0.2621468926553672;0.579158819836786;0.39322033898305087;1.0;0.34023854362837413;0.21217827997489014;0.5222849968612681;0.29491525423728815;1.0;0.43904582548650345;0.38066541117388575;0.6185812931575644;1.0;0.24067796610169492;0.38242310106716887;1.0;0.3686126804770873;1.0
0;S11;Square;1.0;0.1495291902071563;0.1431261770244821;0.14174513496547395;0.15091023226616446;0.15605775266792216;0.1313245448838669;0.13822975517890773;1.0;0.535593220338983;0.4443188951663528;0.4797237915881984;0.3827997489014438;0.46290018832391716;0.44318895166352795;1.0;0.5583176396735718;0.3224105461393597;0.28600125549278094;0.4605147520401758;0.3263025737602009;1.0;0.28035153797865664;0.24344005021971124;0.4477087256748274;0.28411801632140615;1.0;0.49453860640301317;0.3168863779033271;0.455743879472693;1.0;0.2698053986189579;0.4182046453232894;1.0;0.36070307595731327;1.0
0;S13;Square;1.0;0.15118174409127955;0.1401792991035045;0.14119804400977995;0.139160554197229;0.15831295843520782;0.14466177669111654;0.145680521597392;1.0;0.5075387123064384;0.38386308068459657;0.5692746536267319;0.41992665036674814;0.4178891605541972;0.46862265688671556;1.0;0.5990220048899756;0.38162184189079057;0.29054604726976363;0.5213936430317848;0.3443357783211084;1.0;0.29991850040749796;0.25876120619396903;0.4741238793806031;0.28463732681336595;1.0;0.5841483292583537;0.35982070089649554;0.6171556642216789;1.0;0.33496332518337407;0.58679706601467;1.0;0.41442542787286063;1.0
0;S14;Square;1.0;0.11814187068424356;0.10998116760828625;0.10006277463904582;0.11462649089767733;0.12467043314500942;0.10998116760828625;0.13358443188951663;1.0;0.383804143126177;0.24708097928436912;0.32994350282485874;0.2946641556811048;0.34689265536723163;0.3490269930947897;1.0;0.3603264281230383;0.28286252354048963;0.23477715003138733;0.3840552416823603;0.29077212806026365;1.0;0.1943502824858757;0.17551789077212807;0.2621468926553672;0.1956057752667922;1.0;0.32366603892027623;0.27156308851224104;0.3308223477715003;1.0;0.24331450094161958;0.335969868173258;1.0;0.3229127432517263;1.0
0;S15;Square;1.0;0.1152542372881356;0.11249215317011928;0.11073446327683616;0.1259259259259259;0.13433772755806653;0.09165097300690521;0.09114877589453861;1.0;0.530947897049592;0.38581293157564345;0.5846829880728186;0.31424984306340237;0.48097928436911486;0.4130571249215317;1.0;0.4645323289391086;0.34639045825486503;0.22046453232893912;0.45185185185185184;0.27156308851224104;1.0;0.26566227244193347;0.18418079096045198;0.40753295668549905;0.21318267419962336;1.0;0.5075957313245448;0.33308223477715004;0.47344632768361583;1.0;0.2118016321406152;0.3487758945386064;1.0;0.37263025737602007;1.0
0;S16;Square;1.0;0.1170119271814187;0.11989956057752668;0.12529817953546768;0.12605147520401758;0.12328939108600126;0.10508474576271186;0.11487758945386065;1.0;0.5005649717514125;0.42008788449466417;0.4857501569365976;0.34023854362837413;0.4076585059635907;0.4364092906465788;1.0;0.5210295040803515;0.43440050219711235;0.3073446327683616;0.44231010671688636;0.3711236660389203;1.0;0.3610797237915882;0.2729441305712492;0.4170747018204645;0.31148775894538605;1.0;0.43440050219711235;0.34538606403013183;0.44745762711864406;1.0;0.26490897677338354;0.3408662900188324;1.0;0.35568110483364723;1.0
0;S18;Square;1.0;0.17865662272441934;0.1608286252354049;0.15379786566227244;0.1933458882611425;0.19937225360954175;0.1278091650973007;0.135969868173258;1.0;0.6307595731324545;0.45750156936597614;0.5530445699937225;0.35229127432517265;0.42875078468298805;0.3576898932831136;1.0;0.6071563088512241;0.46076585059635905;0.2942875078468299;0.4934086629001883;0.29667294413057127;1.0;0.35003138731952294;0.239924670433145;0.4335216572504708;0.23214061519146265;1.0;0.565097300690521;0.33408662900188324;0.4593848085373509;1.0;0.22900188323917137;0.4420590081607031;1.0;0.29742623979912114;1.0
0;S20;Square;1.0;0.13006905210295042;0.12341494036409291;0.1167608286252354;0.1421217827997489;0.14726930320150658;0.11274325172630258;0.12492153170119272;1.0;0.5580665411173886;0.41368487131198994;0.5483992467043315;0.36710608913998743;0.4233521657250471;0.4473320778405524;1.0;0.5191462649089768;0.4595103578154426;0.3083490269930948;0.47281858129315757;0.3933458882611425;1.0;0.362586315128688;0.26854990583804145;0.3918392969240427;0.29026993094789705;1.0;0.5092278719397364;0.3478970495919648;0.4218455743879473;1.0;0.24243565599497802;0.3266792215944758;1.0;0.3845574387947269;1.0
0;S21;Square;1.0;0.11148775894538607;0.10784682988072819;0.09428750784682988;0.12140615191462649;0.13170119271814187;0.09453860640301319;0.10433145009416196;1.0;0.53308223477715;0.40703075957313245;0.5014438166980539;0.3794099183929692;0.3951035781544256;0.36321406151914626;1.0;0.5559322033898305;0.3530445699937225;0.29202762084118017;0.3800376647834275;0.28700564971751413;1.0;0.28650345260514753;0.23804143126177024;0.3418706842435656;0.23364720652856247;1.0;0.5050847457627119;0.32467043314500943;0.3928436911487759;1.0;0.2872567482736974;0.37074701820464534;1.0;0.35040803515379787;1.0
0;S22;Square;1.0;0.22234777150031387;0.2163214061519146;0.22159447583176398;0.2246076585059636;0.22900188323917137;0.18242310106716886;0.17313245448838668;1.0;0.6642812303829253;0.5447583176396735;0.6508474576271186;0.4962962962962963;0.5310734463276836;0.5178907721280602;1.0;0.608286252354049;0.5507846829880728;0.4165725047080979;0.5252981795354676;0.4487131198995606;1.0;0.45875706214689266;0.37037037037037035;0.48336472065285624;0.37639673571876964;1.0;0.6;0.4817325800376648;0.5640929064657878;1.0;0.3922159447583176;0.48462021343377276;1.0;0.5116133082234777;1.0
0;S23;Square;1.0;0.11387319522912744;0.11286880100439423;0.11311989956057752;0.11173885750156937;0.122661644695543;0.09152542372881356;0.0957940991839297;1.0;0.5550533584431889;0.41494036409290647;0.5723791588198368;0.4369114877589454;0.45875706214689266;0.45499058380414314;1.0;0.5649717514124294;0.3930947897049592;0.3055869428750785;0.46817325800376647;0.32366603892027623;1.0;0.30822347771500314;0.25323289391086;0.4072818581293158;0.26528562460765853;1.0;0.5713747645951036;0.3376020087884495;0.4693032015065913;1.0;0.2843691148775895;0.4596359070935342;1.0;0.4010043942247332;1.0
0;S24;Square;1.0;0.1111111111111111;0.1111111111111111;0.09742623979912116;0.1165097300690521;0.10408035153797866;0.0908976773383553;0.0886377903327056;1.0;0.458631512868801;0.28775894538606406;0.5561833019460138;0.3494036409290647;0.3394852479598242;0.37263025737602007;1.0;0.4256120527306968;0.3191462649089768;0.2194601381042059;0.3938480853735091;0.23138731952291275;1.0;0.21318267419962336;0.1610797237915882;0.29918392969240426;0.15668549905838042;1.0;0.5191462649089768;0.2455743879472693;0.4533584431889517;1.0;0.17777777777777778;0.3969868173258004;1.0;0.2543628374136849;1.0
0;S26;Square;1.0;0.07620841180163214;0.08286252354048965;0.07922159447583177;0.08160703075957314;0.07520401757689893;0.07997489014438167;0.08361581920903954;1.0;0.39861895794099184;0.2858757062146893;0.3127432517263026;0.17765222849968612;0.3016949152542373;0.31098556183301945;1.0;0.4562460765850596;0.3037037037037037;0.16710608913998745;0.40991839296924043;0.3083490269930948;1.0;0.21858129315756433;0.14538606403013182;0.29817953546767106;0.21268047708725674;1.0;0.25348399246704334;0.24356559949780288;0.41406151914626493;1.0;0.16208411801632142;0.23038292529817953;1.0;0.28273697426239797;1.0
0;S27;Square;1.0;0.07407407407407407;0.07633396107972379;0.07256748273697426;0.0711864406779661;0.06603892027620842;0.07256748273697426;0.07507846829880728;1.0;0.41406151914626493;0.33772755806654114;0.37313245448838667;0.2612680477087257;0.22347771500313873;0.26026365348399244;1.0;0.4591337099811676;0.3261770244821092;0.22498430634023855;0.23527934714375393;0.23138731952291275;1.0;0.27570621468926554;0.19409918392969241;0.24168236032642812;0.20401757689893282;1.0;0.3470182046453233;0.20552416823603264;0.2998116760828625;1.0;0.15003138731952292;0.21757689893283114;1.0;0.2184557438794727;1.0
0;S28;Square;1.0;0.0647834274952919;0.07445072190834903;0.07746390458254865;0.06252354048964219;0.06290018832391714;0.0775894538606403;0.07445072190834903;1.0;0.22109227871939735;0.18983050847457628;0.21682360326428124;0.16660389202762085;0.2533584431889517;0.2163214061519146;1.0;0.30006277463904585;0.17878217200251098;0.12994350282485875;0.2911487758945386;0.17112366603892026;1.0;0.16020087884494663;0.12529817953546768;0.3145009416195857;0.15404896421845574;1.0;0.27181418706842436;0.21142498430634024;0.29177652228499684;1.0;0.15279347143753924;0.24281230382925298;1.0;0.2276208411801632;1.0
0;S29;Square;1.0;0.06930320150659133;0.06917765222849968;0.06880100439422474;0.0645323289391086;0.06917765222849968;0.09139987445072191;0.08097928436911488;1.0;0.3807909604519774;0.2812303829252982;0.38819836785938483;0.24632768361581922;0.31475204017576897;0.3441305712492153;1.0;0.3365976145637163;0.3192718141870684;0.20991839296924042;0.34639045825486503;0.28512241054613935;1.0;0.23138731952291275;0.16635279347143753;0.2886377903327056;0.20728185812931577;1.0;0.30357815442561203;0.27055869428750784;0.40451977401129946;1.0;0.17551789077212807;0.26867545511613306;1.0;0.3275580665411174;1.0
0;S30;Square;1.0;0.06679221594475832;0.0637790332705587;0.060263653483992465;0.05938480853735091;0.05586942875078468;0.0711864406779661;0.06666666666666667;1.0;0.5889516635279347;0.32944130571249214;0.4155681104833647;0.239924670433145;0.36321406151914626;0.35430006277463905;1.0;0.4778405524168236;0.30106716886377904;0.19083490269930947;0.4298807281858129;0.26767106089139986;1.0;0.20213433772755807;0.14149403640929065;0.4101694915254237;0.19070935342121784;1.0;0.32090395480225986;0.21192718141870684;0.34438166980539864;1.0;0.15819209039548024;0.41129943502824856;1.0;0.28135593220338984;1.0
0;S32;Square;1.0;0.07369742623979912;0.07633396107972379;0.06767106089139988;0.07357187696170747;0.064030131826742;0.07583176396735719;0.07984934086629002;1.0;0.6146892655367232;0.4059008160703076;0.5630885122410546;0.35241682360326426;0.4839924670433145;0.4248587570621469;1.0;0.5347143753923415;0.42661644695543;0.27696170747018206;0.5325800376647835;0.34676710608913996;1.0;0.3098556183301946;0.21042059008160702;0.4115505335844319;0.24984306340238543;1.0;0.4562460765850596;0.34074074074074073;0.4124293785310734;1.0;0.24595103578154426;0.3339610797237916;1.0;0.41694915254237286;1.0
0;S33;Square;1.0;0.05963590709353421;0.0657878217200251;0.06854990583804144;0.062146892655367235;0.05850596359070935;0.06779661016949153;0.06202134337727558;1.0;0.5134965473948525;0.328060263653484;0.4175768989328311;0.239924670433145;0.389202762084118;0.34764595103578155;1.0;0.5327055869428751;0.2797237915881984;0.181293157564344;0.5058380414312618;0.23678593848085375;1.0;0.19271814187068426;0.14601381042059008;0.41443816698053987;0.17652228499686126;1.0;0.3376020087884495;0.23678593848085375;0.4562460765850596;1.0;0.15003138731952292;0.2947897049591965;1.0;0.24770872567482738;1.0
0;S34;Square;1.0;0.08198367859384809;0.0770872567482737;0.07269303201506591;0.07520401757689893;0.07771500313873195;0.08700564971751412;0.09202762084118016;1.0;0.4568738229755179;0.2970495919648462;0.3790332705586943;0.1635907093534212;0.3634651600753296;0.3098556183301946;1.0;0.5026993094789705;0.22699309478970495;0.11186440677966102;0.4473320778405524;0.20163214061519147;1.0;0.1697426239799121;0.09516635279347144;0.38631512868801005;0.15317011927181418;1.0;0.34074074074074073;0.2263653483992467;0.37815442561205276;1.0;0.12040175768989328;0.23176396735718768;1.0;0.24896421845574387;1.0
0;S35;Square;1.0;0.077338355304457;0.0778405524168236;0.07357187696170747;0.07909604519774012;0.07043314500941619;0.08688010043942247;0.1032015065913371;1.0;0.42875078468298805;0.32655367231638416;0.39912115505335843;0.1915881983678594;0.3578154425612053;0.2033898305084746;1.0;0.49692404268675455;0.2983050847457627;0.15580665411173886;0.44180790960451977;0.18443188951663528;1.0;0.23063402385436282;0.1364720652856246;0.36170747018204646;0.14450721908349026;1.0;0.2793471437539234;0.26202134337727556;0.23829252981795354;1.0;0.15505335844318896;0.20037664783427495;1.0;0.24858757062146894;1.0
0;S36;Square;1.0;0.052354048964218455;0.04896421845574388;0.04821092278719397;0.0519774011299435;0.053609541745134964;0.0514752040175769;0.06089139987445072;1.0;0.509353421217828;0.30646578782172;0.44833647206528565;0.23879472693032014;0.3855618330194601;0.3021971123666039;1.0;0.455743879472693;0.2962962962962963;0.17376020087884494;0.4166980539861896;0.21343377275580666;1.0;0.19070935342121784;0.13509102322661645;0.3029504080351538;0.14890144381669806;1.0;0.38819836785938483;0.26716886377903326;0.3757689893283114;1.0;0.16710608913998745;0.3078468298807282;1.0;0.28876333961079725;1.0
0;S37;Square;1.0;0.07080979284369116;0.07608286252354049;0.06942875078468298;0.07043314500941619;0.06064030131826742;0.08788449466415568;0.08210922787193974;1.0;0.4110483364720653;0.2533584431889517;0.408286252354049;0.17915881983678594;0.36170747018204646;0.402510985561833;1.0;0.44055241682360324;0.23239171374764594;0.13094789704959198;0.5491525423728814;0.23640929064657878;1.0;0.165473948524796;0.10094161958568738;0.3807909604519774;0.16296296296296298;1.0;0.3526679221594476;0.21155053358443188;0.49893283113622094;1.0;0.12077840552416824;0.27080979284369117;1.0;0.2593848085373509;1.0
